TITLE	PE39_GEF_Assay_Scan
DATA TYPE	
ORIGIN	JASCO
OWNER	
DATE	18/09/14
TIME	19:04:30
SPECTROMETER/DATA SYSTEM	JASCO Corp., J-715, Rev. 1.00
RESOLUTION	
DELTAX	-0.2
XUNITS	NANOMETERS
YUNITS	CD[mdeg]
Y2UNITS	HT[V]
FIRSTX	280.0000
LASTX	195.0000
NPOINTS	426
FIRSTY	0.23425
MAXY	9.17051
MINY	-7.64616
XYDATA
280.0000	0.234249	238.75
279.8000	0.241231	238.76
279.6000	0.246367	238.777
279.4000	0.25493	238.802
279.2000	0.257984	238.833
279.0000	0.251665	238.871
278.8000	0.245844	238.917
278.6000	0.24855	238.971
278.4000	0.254182	239.032
278.2000	0.265544	239.1
278.0000	0.271347	239.177
277.8000	0.266794	239.262
277.6000	0.263286	239.352
277.4000	0.266187	239.453
277.2000	0.261334	239.556
277.0000	0.259864	239.66
276.8000	0.258046	239.766
276.6000	0.257969	239.873
276.4000	0.256713	239.981
276.2000	0.263718	240.09
276.0000	0.263818	240.2
275.8000	0.253128	240.308
275.6000	0.253999	240.416
275.4000	0.246563	240.523
275.2000	0.239872	240.629
275.0000	0.243661	240.738
274.8000	0.232796	240.847
274.6000	0.236585	240.951
274.4000	0.242832	241.055
274.2000	0.248464	241.161
274.0000	0.245865	241.27
273.8000	0.235022	241.376
273.6000	0.228426	241.482
273.4000	0.227756	241.589
273.2000	0.233341	241.698
273.0000	0.238225	241.806
272.8000	0.236342	241.916
272.6000	0.233018	242.028
272.4000	0.231057	242.14
272.2000	0.223535	242.254
272.0000	0.22527	242.372
271.8000	0.215928	242.493
271.6000	0.196214	242.612
271.4000	0.197095	242.731
271.2000	0.203383	242.852
271.0000	0.203732	242.974
270.8000	0.206768	243.095
270.6000	0.205133	243.215
270.4000	0.199796	243.332
270.2000	0.196694	243.453
270.0000	0.193347	243.573
269.8000	0.199618	243.692
269.6000	0.200737	243.807
269.4000	0.193392	243.92
269.2000	0.194886	244.03
269.0000	0.203824	244.14
268.8000	0.207257	244.25
268.6000	0.19645	244.357
268.4000	0.199261	244.465
268.2000	0.199623	244.569
268.0000	0.194429	244.673
267.8000	0.188757	244.779
267.6000	0.180548	244.884
267.4000	0.186714	244.989
267.2000	0.185521	245.092
267.0000	0.173801	245.194
266.8000	0.180037	245.296
266.6000	0.187472	245.402
266.4000	0.176868	245.507
266.2000	0.16923	245.608
266.0000	0.17209	245.708
265.8000	0.179913	245.811
265.6000	0.180831	245.912
265.4000	0.181486	246.012
265.2000	0.177937	246.111
265.0000	0.182975	246.208
264.8000	0.192717	246.308
264.6000	0.195188	246.405
264.4000	0.20042	246.5
264.2000	0.191414	246.598
264.0000	0.190619	246.695
263.8000	0.194823	246.789
263.6000	0.189844	246.88
263.4000	0.1892	246.977
263.2000	0.171398	247.073
263.0000	0.155597	247.169
262.8000	0.161542	247.263
262.6000	0.165693	247.356
262.4000	0.170705	247.452
262.2000	0.176648	247.55
262.0000	0.165404	247.645
261.8000	0.164228	247.744
261.6000	0.16536	247.843
261.4000	0.161669	247.942
261.2000	0.158413	248.042
261.0000	0.176388	248.146
260.8000	0.182899	248.252
260.6000	0.182136	248.358
260.4000	0.196861	248.464
260.2000	0.209991	248.571
260.0000	0.197818	248.681
259.8000	0.196304	248.791
259.6000	0.175372	248.902
259.4000	0.175136	249.01
259.2000	0.17671	249.121
259.0000	0.17256	249.232
258.8000	0.176854	249.342
258.6000	0.176793	249.454
258.4000	0.14679	249.566
258.2000	0.13818	249.674
258.0000	0.122435	249.785
257.8000	0.122938	249.894
257.6000	0.118988	250.005
257.4000	0.117272	250.115
257.2000	0.117774	250.227
257.0000	0.113987	250.338
256.8000	0.112738	250.451
256.6000	0.106859	250.567
256.4000	0.107443	250.683
256.2000	0.113743	250.8
256.0000	0.111393	250.92
255.8000	0.1284	251.038
255.6000	0.13708	251.157
255.4000	0.135983	251.279
255.2000	0.147537	251.403
255.0000	0.144312	251.526
254.8000	0.146782	251.652
254.6000	0.120523	251.775
254.4000	0.126294	251.903
254.2000	0.136042	252.032
254.0000	0.142851	252.158
253.8000	0.145878	252.28
253.6000	0.140581	252.401
253.4000	0.138355	252.523
253.2000	0.142107	252.648
253.0000	0.132761	252.775
252.8000	0.15025	252.902
252.6000	0.160382	253.024
252.4000	0.158006	253.145
252.2000	0.163357	253.266
252.0000	0.170324	253.387
251.8000	0.191032	253.508
251.6000	0.183938	253.626
251.4000	0.176173	253.744
251.2000	0.164709	253.867
251.0000	0.153084	253.992
250.8000	0.135583	254.115
250.6000	0.132078	254.235
250.4000	0.11847	254.354
250.2000	0.120969	254.472
250.0000	0.102707	254.592
249.8000	0.0953736	254.713
249.6000	0.0969224	254.835
249.4000	0.0841846	254.954
249.2000	0.0597434	255.072
249.0000	0.0493951	255.196
248.8000	0.0486741	255.323
248.6000	0.0565042	255.451
248.4000	0.060534	255.58
248.2000	0.0608668	255.712
248.0000	0.0569839	255.845
247.8000	0.0518117	255.981
247.6000	0.0573168	256.118
247.4000	0.0505204	256.257
247.2000	0.0440907	256.396
247.0000	0.0301418	256.537
246.8000	0.0196309	256.682
246.6000	0.0189772	256.832
246.4000	0.0197182	256.981
246.2000	0.00588703	257.129
246.0000	-0.00319338	257.279
245.8000	-0.0338035	257.429
245.6000	-0.0544615	257.581
245.4000	-0.0639844	257.735
245.2000	-0.0716238	257.892
245.0000	-0.0790114	258.05
244.8000	-0.107184	258.213
244.6000	-0.115775	258.378
244.4000	-0.143441	258.544
244.2000	-0.161006	258.714
244.0000	-0.184215	258.887
243.8000	-0.20747	259.067
243.6000	-0.238033	259.25
243.4000	-0.263407	259.436
243.2000	-0.290731	259.622
243.0000	-0.301696	259.815
242.8000	-0.316287	260.013
242.6000	-0.361466	260.214
242.4000	-0.394382	260.421
242.2000	-0.43226	260.632
242.0000	-0.459397	260.847
241.8000	-0.500421	261.066
241.6000	-0.514442	261.29
241.4000	-0.553128	261.519
241.2000	-0.599582	261.751
241.0000	-0.636142	261.985
240.8000	-0.67069	262.223
240.6000	-0.712967	262.469
240.4000	-0.748425	262.721
240.2000	-0.79612	262.974
240.0000	-0.838597	263.229
239.8000	-0.858852	263.49
239.6000	-0.894281	263.755
239.4000	-0.948931	264.022
239.2000	-0.988151	264.296
239.0000	-1.02149	264.573
238.8000	-1.08914	264.855
238.6000	-1.14257	265.14
238.4000	-1.19233	265.429
238.2000	-1.25629	265.722
238.0000	-1.32868	266.018
237.8000	-1.39538	266.315
237.6000	-1.46038	266.62
237.4000	-1.51864	266.928
237.2000	-1.60542	267.235
237.0000	-1.67869	267.548
236.8000	-1.76525	267.866
236.6000	-1.8484	268.189
236.4000	-1.93037	268.513
236.2000	-2.00693	268.842
236.0000	-2.06335	269.176
235.8000	-2.12343	269.513
235.6000	-2.19197	269.854
235.4000	-2.25398	270.196
235.2000	-2.30844	270.545
235.0000	-2.40142	270.897
234.8000	-2.48269	271.251
234.6000	-2.57375	271.609
234.4000	-2.647	271.971
234.2000	-2.73216	272.339
234.0000	-2.78891	272.709
233.8000	-2.87184	273.082
233.6000	-2.9543	273.459
233.4000	-3.04821	273.838
233.2000	-3.13644	274.217
233.0000	-3.21374	274.599
232.8000	-3.30553	274.982
232.6000	-3.38064	275.369
232.4000	-3.45509	275.755
232.2000	-3.52941	276.141
232.0000	-3.60025	276.53
231.8000	-3.67125	276.919
231.6000	-3.7598	277.306
231.4000	-3.84667	277.69
231.2000	-3.94093	278.076
231.0000	-4.0233	278.464
230.8000	-4.10082	278.854
230.6000	-4.16148	279.247
230.4000	-4.25676	279.643
230.2000	-4.36098	280.041
230.0000	-4.42669	280.439
229.8000	-4.51943	280.836
229.6000	-4.5836	281.233
229.4000	-4.65371	281.632
229.2000	-4.72275	282.03
229.0000	-4.79486	282.43
228.8000	-4.86969	282.828
228.6000	-4.94774	283.225
228.4000	-5.00461	283.62
228.2000	-5.08128	284.011
228.0000	-5.16021	284.397
227.8000	-5.2378	284.779
227.6000	-5.30408	285.161
227.4000	-5.36713	285.541
227.2000	-5.43393	285.919
227.0000	-5.4896	286.297
226.8000	-5.56222	286.676
226.6000	-5.63621	287.056
226.4000	-5.69736	287.437
226.2000	-5.76068	287.819
226.0000	-5.81029	288.203
225.8000	-5.85235	288.587
225.6000	-5.89336	288.974
225.4000	-5.93328	289.364
225.2000	-5.94717	289.755
225.0000	-5.97877	290.147
224.8000	-6.02279	290.543
224.6000	-6.05285	290.941
224.4000	-6.11225	291.344
224.2000	-6.18184	291.746
224.0000	-6.22742	292.152
223.8000	-6.26191	292.559
223.6000	-6.29853	292.969
223.4000	-6.32847	293.381
223.2000	-6.3571	293.796
223.0000	-6.38021	294.215
222.8000	-6.40585	294.635
222.6000	-6.44602	295.057
222.4000	-6.48316	295.486
222.2000	-6.51006	295.915
222.0000	-6.51895	296.344
221.8000	-6.52406	296.775
221.6000	-6.53259	297.21
221.4000	-6.54441	297.65
221.2000	-6.52875	298.09
221.0000	-6.53655	298.532
220.8000	-6.55652	298.977
220.6000	-6.56584	299.424
220.4000	-6.58685	299.874
220.2000	-6.59566	300.33
220.0000	-6.61826	300.792
219.8000	-6.62597	301.258
219.6000	-6.63499	301.73
219.4000	-6.63299	302.206
219.2000	-6.63544	302.694
219.0000	-6.63247	303.188
218.8000	-6.64211	303.687
218.6000	-6.63011	304.193
218.4000	-6.64085	304.706
218.2000	-6.63916	305.228
218.0000	-6.63761	305.762
217.8000	-6.64625	306.304
217.6000	-6.65371	306.855
217.4000	-6.66212	307.414
217.2000	-6.64059	307.981
217.0000	-6.64876	308.556
216.8000	-6.64431	309.143
216.6000	-6.65605	309.739
216.4000	-6.65849	310.339
216.2000	-6.66783	310.951
216.0000	-6.64969	311.573
215.8000	-6.65074	312.206
215.6000	-6.64679	312.85
215.4000	-6.62424	313.504
215.2000	-6.59182	314.17
215.0000	-6.61783	314.853
214.8000	-6.61709	315.549
214.6000	-6.62832	316.259
214.4000	-6.65117	316.99
214.2000	-6.66559	317.741
214.0000	-6.69348	318.507
213.8000	-6.70115	319.298
213.6000	-6.71566	320.11
213.4000	-6.72034	320.946
213.2000	-6.77179	321.805
213.0000	-6.82637	322.686
212.8000	-6.83599	323.591
212.6000	-6.91843	324.519
212.4000	-6.95153	325.472
212.2000	-6.95766	326.445
212.0000	-6.99117	327.442
211.8000	-7.03084	328.462
211.6000	-7.0788	329.506
211.4000	-7.14299	330.572
211.2000	-7.17824	331.666
211.0000	-7.24451	332.787
210.8000	-7.31818	333.937
210.6000	-7.35772	335.112
210.4000	-7.4203	336.32
210.2000	-7.45412	337.566
210.0000	-7.55313	338.843
209.8000	-7.56745	340.154
209.6000	-7.63283	341.497
209.4000	-7.64616	342.877
209.2000	-7.64414	344.295
209.0000	-7.63643	345.75
208.8000	-7.62139	347.242
208.6000	-7.59689	348.768
208.4000	-7.58053	350.333
208.2000	-7.55807	351.936
208.0000	-7.55308	353.576
207.8000	-7.50572	355.257
207.6000	-7.4694	356.974
207.4000	-7.40215	358.73
207.2000	-7.27882	360.53
207.0000	-7.22796	362.374
206.8000	-7.15848	364.263
206.6000	-7.07029	366.2
206.4000	-6.98011	368.184
206.2000	-6.90094	370.212
206.0000	-6.81172	372.288
205.8000	-6.73322	374.412
205.6000	-6.59211	376.582
205.4000	-6.36477	378.801
205.2000	-6.19888	381.072
205.0000	-6.05719	383.392
204.8000	-5.87258	385.764
204.6000	-5.72521	388.186
204.4000	-5.59843	390.668
204.2000	-5.43577	393.203
204.0000	-5.28266	395.792
203.8000	-5.07781	398.438
203.6000	-4.86912	401.144
203.4000	-4.70837	403.914
203.2000	-4.52988	406.75
203.0000	-4.33289	409.653
202.8000	-4.16544	412.619
202.6000	-4.01101	415.65
202.4000	-3.78207	418.751
202.2000	-3.45366	421.914
202.0000	-3.14913	425.138
201.8000	-2.84188	428.435
201.6000	-2.54468	431.797
201.4000	-2.18321	435.231
201.2000	-1.91435	438.732
201.0000	-1.55012	442.301
200.8000	-1.19896	445.945
200.6000	-0.773592	449.662
200.4000	-0.40927	453.455
200.2000	0.0881929	457.329
200.0000	0.511735	461.286
199.8000	0.988993	465.33
199.6000	1.51259	469.462
199.4000	1.83185	473.679
199.2000	2.2519	477.986
199.0000	2.55349	482.38
198.8000	2.97607	486.878
198.6000	3.36223	491.471
198.4000	3.66154	496.172
198.2000	4.08539	500.987
198.0000	4.48926	505.908
197.8000	4.82232	510.939
197.6000	5.10855	516.082
197.4000	5.33396	521.339
197.2000	5.77878	526.712
197.0000	6.16263	532.219
196.8000	6.68677	537.861
196.6000	7.06536	543.656
196.4000	7.33566	549.598
196.2000	7.68125	555.719
196.0000	7.89788	562.017
195.8000	8.1506	568.511
195.6000	8.36709	575.201
195.4000	8.5917	582.093
195.2000	9.03908	589.207
195.0000	9.17051	596.559
