TITLE	PE10_GEF_Assay_Scan
DATA TYPE	
ORIGIN	JASCO
OWNER	
DATE	18/09/04
TIME	13:13:51
SPECTROMETER/DATA SYSTEM	JASCO Corp., J-715, Rev. 1.00
RESOLUTION	
DELTAX	-0.2
XUNITS	NANOMETERS
YUNITS	CD[mdeg]
Y2UNITS	HT[V]
FIRSTX	280.0000
LASTX	195.0000
NPOINTS	426
FIRSTY	-0.72595
MAXY	9.14017
MINY	-9.09580
XYDATA
280.0000	-0.725948	236.089
279.8000	-0.721937	236.1
279.6000	-0.725271	236.117
279.4000	-0.719923	236.142
279.2000	-0.727023	236.174
279.0000	-0.732513	236.213
278.8000	-0.742878	236.26
278.6000	-0.737016	236.316
278.4000	-0.738902	236.379
278.2000	-0.736828	236.448
278.0000	-0.737825	236.525
277.8000	-0.732005	236.612
277.6000	-0.742843	236.706
277.4000	-0.745195	236.809
277.2000	-0.751617	236.912
277.0000	-0.744645	237.014
276.8000	-0.734479	237.118
276.6000	-0.735143	237.221
276.4000	-0.7141	237.325
276.2000	-0.714993	237.43
276.0000	-0.708505	237.534
275.8000	-0.704626	237.637
275.6000	-0.705742	237.742
275.4000	-0.693412	237.847
275.2000	-0.692556	237.952
275.0000	-0.673262	238.056
274.8000	-0.664047	238.161
274.6000	-0.661469	238.262
274.4000	-0.655922	238.365
274.2000	-0.660562	238.468
274.0000	-0.666732	238.571
273.8000	-0.66854	238.673
273.6000	-0.659345	238.777
273.4000	-0.659882	238.882
273.2000	-0.657501	238.988
273.0000	-0.658083	239.094
272.8000	-0.644587	239.2
272.6000	-0.643834	239.309
272.4000	-0.647347	239.42
272.2000	-0.665616	239.535
272.0000	-0.660787	239.652
271.8000	-0.659756	239.77
271.6000	-0.655007	239.891
271.4000	-0.653574	240.013
271.2000	-0.647059	240.137
271.0000	-0.646131	240.259
270.8000	-0.652032	240.381
270.6000	-0.645914	240.502
270.4000	-0.643139	240.623
270.2000	-0.646644	240.743
270.0000	-0.657975	240.862
269.8000	-0.657053	240.977
269.6000	-0.644809	241.089
269.4000	-0.637849	241.198
269.2000	-0.640861	241.307
269.0000	-0.637691	241.414
268.8000	-0.630384	241.518
268.6000	-0.631671	241.619
268.4000	-0.624954	241.719
268.2000	-0.634997	241.817
268.0000	-0.639736	241.916
267.8000	-0.638628	242.017
267.6000	-0.641641	242.117
267.4000	-0.62796	242.218
267.2000	-0.615741	242.319
267.0000	-0.616535	242.42
266.8000	-0.617675	242.518
266.6000	-0.633343	242.619
266.4000	-0.626779	242.717
266.2000	-0.638709	242.813
266.0000	-0.646608	242.908
265.8000	-0.637008	243.007
265.6000	-0.635222	243.105
265.4000	-0.628381	243.201
265.2000	-0.618676	243.294
265.0000	-0.619272	243.384
264.8000	-0.604272	243.476
264.6000	-0.619882	243.566
264.4000	-0.625231	243.655
264.2000	-0.630975	243.745
264.0000	-0.627259	243.834
263.8000	-0.62639	243.922
263.6000	-0.622202	244.008
263.4000	-0.621818	244.099
263.2000	-0.632252	244.19
263.0000	-0.639025	244.281
262.8000	-0.630896	244.369
262.6000	-0.631304	244.46
262.4000	-0.636727	244.551
262.2000	-0.634054	244.643
262.0000	-0.646525	244.737
261.8000	-0.647557	244.833
261.6000	-0.648852	244.93
261.4000	-0.632681	245.027
261.2000	-0.627932	245.124
261.0000	-0.629773	245.225
260.8000	-0.638747	245.328
260.6000	-0.628298	245.429
260.4000	-0.628153	245.531
260.2000	-0.629714	245.636
260.0000	-0.64358	245.742
259.8000	-0.646895	245.85
259.6000	-0.654157	245.961
259.4000	-0.657208	246.068
259.2000	-0.653931	246.177
259.0000	-0.648035	246.287
258.8000	-0.649403	246.394
258.6000	-0.675228	246.504
258.4000	-0.676534	246.614
258.2000	-0.685254	246.72
258.0000	-0.671642	246.829
257.8000	-0.672847	246.936
257.6000	-0.67576	247.044
257.4000	-0.665874	247.151
257.2000	-0.668525	247.259
257.0000	-0.671542	247.365
256.8000	-0.681371	247.471
256.6000	-0.676297	247.579
256.4000	-0.671027	247.689
256.2000	-0.682506	247.799
256.0000	-0.67906	247.913
255.8000	-0.674172	248.027
255.6000	-0.671954	248.141
255.4000	-0.673716	248.258
255.2000	-0.671249	248.375
255.0000	-0.670575	248.493
254.8000	-0.658635	248.609
254.6000	-0.670668	248.727
254.4000	-0.678387	248.847
254.2000	-0.684918	248.966
254.0000	-0.679389	249.087
253.8000	-0.684868	249.206
253.6000	-0.693154	249.324
253.4000	-0.686132	249.443
253.2000	-0.698064	249.559
253.0000	-0.708389	249.676
252.8000	-0.720715	249.792
252.6000	-0.729451	249.905
252.4000	-0.74624	250.018
252.2000	-0.756834	250.133
252.0000	-0.768245	250.248
251.8000	-0.756234	250.364
251.6000	-0.758792	250.478
251.4000	-0.750768	250.592
251.2000	-0.746677	250.704
251.0000	-0.752315	250.816
250.8000	-0.746165	250.927
250.6000	-0.760199	251.037
250.4000	-0.758082	251.146
250.2000	-0.749381	251.256
250.0000	-0.752863	251.369
249.8000	-0.746259	251.482
249.6000	-0.760005	251.594
249.4000	-0.766563	251.704
249.2000	-0.766487	251.816
249.0000	-0.771685	251.926
248.8000	-0.784634	252.04
248.6000	-0.781539	252.157
248.4000	-0.795212	252.277
248.2000	-0.803233	252.399
248.0000	-0.81146	252.522
247.8000	-0.810955	252.649
247.6000	-0.818643	252.776
247.4000	-0.824505	252.906
247.2000	-0.839943	253.036
247.0000	-0.846709	253.171
246.8000	-0.829848	253.307
246.6000	-0.84354	253.445
246.4000	-0.845237	253.585
246.2000	-0.843319	253.727
246.0000	-0.860054	253.869
245.8000	-0.867833	254.013
245.6000	-0.883694	254.159
245.4000	-0.899406	254.306
245.2000	-0.917433	254.456
245.0000	-0.919692	254.605
244.8000	-0.935039	254.758
244.6000	-0.943373	254.916
244.4000	-0.94565	255.073
244.2000	-0.96915	255.23
244.0000	-0.988753	255.392
243.8000	-1.00913	255.559
243.6000	-1.04242	255.729
243.4000	-1.07347	255.902
243.2000	-1.10127	256.078
243.0000	-1.13358	256.257
242.8000	-1.14949	256.442
242.6000	-1.1722	256.63
242.4000	-1.21142	256.82
242.2000	-1.24316	257.017
242.0000	-1.2802	257.215
241.8000	-1.3337	257.417
241.6000	-1.36794	257.626
241.4000	-1.40145	257.838
241.2000	-1.43134	258.052
241.0000	-1.46463	258.269
240.8000	-1.48662	258.491
240.6000	-1.52988	258.717
240.4000	-1.564	258.948
240.2000	-1.60906	259.18
240.0000	-1.66982	259.413
239.8000	-1.68733	259.653
239.6000	-1.71792	259.898
239.4000	-1.77417	260.146
239.2000	-1.81811	260.401
239.0000	-1.87034	260.658
238.8000	-1.92994	260.918
238.6000	-1.99355	261.182
238.4000	-2.0579	261.451
238.2000	-2.12709	261.724
238.0000	-2.19038	262
237.8000	-2.26278	262.278
237.6000	-2.34012	262.562
237.4000	-2.40252	262.851
237.2000	-2.48597	263.144
237.0000	-2.57452	263.441
236.8000	-2.6537	263.74
236.6000	-2.72971	264.044
236.4000	-2.80021	264.349
236.2000	-2.88253	264.659
236.0000	-2.97118	264.976
235.8000	-3.05141	265.298
235.6000	-3.13872	265.623
235.4000	-3.22063	265.95
235.2000	-3.30729	266.283
235.0000	-3.38048	266.619
234.8000	-3.46545	266.958
234.6000	-3.54419	267.301
234.4000	-3.63544	267.646
234.2000	-3.72443	267.998
234.0000	-3.81113	268.353
233.8000	-3.88722	268.712
233.6000	-3.98909	269.076
233.4000	-4.07259	269.44
233.2000	-4.16604	269.805
233.0000	-4.25617	270.171
232.8000	-4.34793	270.537
232.6000	-4.44155	270.906
232.4000	-4.54292	271.274
232.2000	-4.63738	271.643
232.0000	-4.7238	272.011
231.8000	-4.84157	272.379
231.6000	-4.93388	272.746
231.4000	-5.01821	273.113
231.2000	-5.11202	273.483
231.0000	-5.20567	273.85
230.8000	-5.28992	274.218
230.6000	-5.38866	274.589
230.4000	-5.46123	274.962
230.2000	-5.54125	275.338
230.0000	-5.6269	275.715
229.8000	-5.70078	276.093
229.6000	-5.76299	276.471
229.4000	-5.84766	276.851
229.2000	-5.92026	277.231
229.0000	-5.97807	277.611
228.8000	-6.0594	277.993
228.6000	-6.13059	278.371
228.4000	-6.19898	278.748
228.2000	-6.25505	279.125
228.0000	-6.32381	279.501
227.8000	-6.39083	279.876
227.6000	-6.4658	280.249
227.4000	-6.53957	280.62
227.2000	-6.61346	280.99
227.0000	-6.6993	281.359
226.8000	-6.76259	281.731
226.6000	-6.82392	282.103
226.4000	-6.8991	282.476
226.2000	-6.95065	282.851
226.0000	-6.99545	283.225
225.8000	-7.07444	283.602
225.6000	-7.13169	283.982
225.4000	-7.20038	284.363
225.2000	-7.25512	284.744
225.0000	-7.31391	285.124
224.8000	-7.34619	285.505
224.6000	-7.38352	285.889
224.4000	-7.4227	286.277
224.2000	-7.44676	286.666
224.0000	-7.47653	287.057
223.8000	-7.50891	287.448
223.6000	-7.5436	287.84
223.4000	-7.59312	288.235
223.2000	-7.62544	288.633
223.0000	-7.64948	289.032
222.8000	-7.67025	289.431
222.6000	-7.70531	289.834
222.4000	-7.72135	290.241
222.2000	-7.72596	290.652
222.0000	-7.76515	291.067
221.8000	-7.79194	291.483
221.6000	-7.81642	291.902
221.4000	-7.84321	292.325
221.2000	-7.8858	292.751
221.0000	-7.90583	293.18
220.8000	-7.92475	293.613
220.6000	-7.95331	294.048
220.4000	-7.97012	294.486
220.2000	-7.986	294.93
220.0000	-8.00293	295.377
219.8000	-8.01138	295.831
219.6000	-8.03708	296.29
219.4000	-8.03147	296.755
219.2000	-8.02659	297.227
219.0000	-8.02611	297.705
218.8000	-8.03989	298.191
218.6000	-8.05175	298.684
218.4000	-8.03599	299.185
218.2000	-8.03824	299.695
218.0000	-8.05618	300.211
217.8000	-8.05847	300.738
217.6000	-8.05756	301.272
217.4000	-8.068	301.815
217.2000	-8.06938	302.37
217.0000	-8.056	302.933
216.8000	-8.06353	303.505
216.6000	-8.08006	304.085
216.4000	-8.10176	304.675
216.2000	-8.12134	305.272
216.0000	-8.1141	305.879
215.8000	-8.13395	306.496
215.6000	-8.13987	307.125
215.4000	-8.1249	307.768
215.2000	-8.10769	308.428
215.0000	-8.09844	309.105
214.8000	-8.11721	309.8
214.6000	-8.11872	310.511
214.4000	-8.14826	311.237
214.2000	-8.16207	311.985
214.0000	-8.19552	312.753
213.8000	-8.2463	313.544
213.6000	-8.24967	314.357
213.4000	-8.24978	315.193
213.2000	-8.27592	316.053
213.0000	-8.29971	316.935
212.8000	-8.32859	317.841
212.6000	-8.38985	318.769
212.4000	-8.40795	319.717
212.2000	-8.45134	320.686
212.0000	-8.48604	321.679
211.8000	-8.53574	322.699
211.6000	-8.60174	323.744
211.4000	-8.6454	324.814
211.2000	-8.68772	325.913
211.0000	-8.7142	327.036
210.8000	-8.7578	328.185
210.6000	-8.8112	329.364
210.4000	-8.88032	330.575
210.2000	-8.93452	331.82
210.0000	-8.98402	333.101
209.8000	-9.00673	334.419
209.6000	-9.06619	335.777
209.4000	-9.08517	337.169
209.2000	-9.0958	338.6
209.0000	-9.09213	340.066
208.8000	-9.0882	341.567
208.6000	-9.0644	343.104
208.4000	-9.01783	344.679
208.2000	-9.01303	346.292
208.0000	-8.9866	347.948
207.8000	-8.92435	349.645
207.6000	-8.82313	351.385
207.4000	-8.77755	353.165
207.2000	-8.71204	354.988
207.0000	-8.67962	356.854
206.8000	-8.61243	358.766
206.6000	-8.51495	360.725
206.4000	-8.40731	362.73
206.2000	-8.30118	364.784
206.0000	-8.1922	366.888
205.8000	-8.08568	369.041
205.6000	-7.94659	371.247
205.4000	-7.81744	373.512
205.2000	-7.6703	375.829
205.0000	-7.58476	378.195
204.8000	-7.50005	380.615
204.6000	-7.35416	383.087
204.4000	-7.13366	385.615
204.2000	-6.97981	388.2
204.0000	-6.77568	390.847
203.8000	-6.60589	393.559
203.6000	-6.41613	396.335
203.4000	-6.21212	399.177
203.2000	-5.94474	402.089
203.0000	-5.75936	405.072
202.8000	-5.52766	408.119
202.6000	-5.25952	411.234
202.4000	-4.99047	414.417
202.2000	-4.68263	417.674
202.0000	-4.37504	421.003
201.8000	-4.01762	424.407
201.6000	-3.65745	427.882
201.4000	-3.24188	431.433
201.2000	-2.8829	435.055
201.0000	-2.55446	438.748
200.8000	-2.31722	442.523
200.6000	-1.86949	446.378
200.4000	-1.4314	450.312
200.2000	-0.949555	454.33
200.0000	-0.592105	458.439
199.8000	-0.206055	462.643
199.6000	0.281745	466.941
199.4000	0.764392	471.326
199.2000	1.25466	475.805
199.0000	1.7557	480.384
198.8000	2.17763	485.07
198.6000	2.66518	489.862
198.4000	3.10527	494.767
198.2000	3.61614	499.789
198.0000	4.03214	504.925
197.8000	4.35204	510.182
197.6000	4.84507	515.566
197.4000	5.20974	521.067
197.2000	5.68712	526.694
197.0000	6.04512	532.462
196.8000	6.43427	538.383
196.6000	6.84483	544.474
196.4000	7.09909	550.729
196.2000	7.34457	557.169
196.0000	7.52074	563.802
195.8000	7.84465	570.645
195.6000	8.02687	577.705
195.4000	8.41675	584.985
195.2000	8.73515	592.496
195.0000	9.14017	600.251
