TITLE	PE12_GEF_Assay_Scan
DATA TYPE	
ORIGIN	JASCO
OWNER	
DATE	18/09/04
TIME	19:31:22
SPECTROMETER/DATA SYSTEM	JASCO Corp., J-715, Rev. 1.00
RESOLUTION	
DELTAX	-0.2
XUNITS	NANOMETERS
YUNITS	CD[mdeg]
Y2UNITS	HT[V]
FIRSTX	280.0000
LASTX	195.0000
NPOINTS	426
FIRSTY	0.19485
MAXY	7.63857
MINY	-7.38149
XYDATA
280.0000	0.19485	236.337
279.8000	0.190376	236.347
279.6000	0.178899	236.363
279.4000	0.170907	236.389
279.2000	0.167409	236.422
279.0000	0.16315	236.463
278.8000	0.169479	236.51
278.6000	0.165456	236.565
278.4000	0.166414	236.627
278.2000	0.155526	236.696
278.0000	0.171152	236.77
277.8000	0.161512	236.854
277.6000	0.161485	236.943
277.4000	0.152305	237.041
277.2000	0.147721	237.141
277.0000	0.139522	237.244
276.8000	0.148299	237.348
276.6000	0.153996	237.452
276.4000	0.156083	237.556
276.2000	0.155732	237.66
276.0000	0.158272	237.764
275.8000	0.162917	237.869
275.6000	0.158892	237.974
275.4000	0.16696	238.081
275.2000	0.161593	238.188
275.0000	0.167004	238.294
274.8000	0.165974	238.4
274.6000	0.172879	238.504
274.4000	0.179542	238.609
274.2000	0.177446	238.713
274.0000	0.180776	238.818
273.8000	0.168878	238.922
273.6000	0.169901	239.028
273.4000	0.159953	239.135
273.2000	0.155753	239.244
273.0000	0.153068	239.352
272.8000	0.159151	239.463
272.6000	0.154442	239.572
272.4000	0.162009	239.685
272.2000	0.158005	239.801
272.0000	0.158912	239.919
271.8000	0.151765	240.038
271.6000	0.160595	240.158
271.4000	0.149835	240.281
271.2000	0.15543	240.405
271.0000	0.14365	240.528
270.8000	0.150427	240.649
270.6000	0.152014	240.77
270.4000	0.15288	240.889
270.2000	0.14521	241.007
270.0000	0.144159	241.124
269.8000	0.140391	241.24
269.6000	0.136745	241.349
269.4000	0.139247	241.46
269.2000	0.143261	241.569
269.0000	0.151103	241.677
268.8000	0.15305	241.78
268.6000	0.16081	241.882
268.4000	0.164382	241.985
268.2000	0.183541	242.087
268.0000	0.176556	242.189
267.8000	0.184498	242.294
267.6000	0.187131	242.396
267.4000	0.189331	242.501
267.2000	0.199075	242.605
267.0000	0.195472	242.708
266.8000	0.197417	242.808
266.6000	0.196078	242.91
266.4000	0.203662	243.013
266.2000	0.207199	243.115
266.0000	0.204093	243.217
265.8000	0.194096	243.318
265.6000	0.194212	243.417
265.4000	0.203001	243.517
265.2000	0.200458	243.613
265.0000	0.203234	243.707
264.8000	0.198555	243.801
264.6000	0.196406	243.892
264.4000	0.17986	243.981
264.2000	0.180691	244.075
264.0000	0.175127	244.169
263.8000	0.171447	244.261
263.6000	0.167472	244.349
263.4000	0.152769	244.44
263.2000	0.159388	244.53
263.0000	0.15728	244.621
262.8000	0.143377	244.71
262.6000	0.135845	244.798
262.4000	0.131513	244.888
262.2000	0.134107	244.98
262.0000	0.125913	245.074
261.8000	0.137225	245.17
261.6000	0.137138	245.264
261.4000	0.127456	245.359
261.2000	0.11776	245.456
261.0000	0.123525	245.554
260.8000	0.119958	245.655
260.6000	0.111127	245.756
260.4000	0.110027	245.86
260.2000	0.113505	245.965
260.0000	0.107438	246.072
259.8000	0.101048	246.18
259.6000	0.0862005	246.289
259.4000	0.0859728	246.396
259.2000	0.0812644	246.505
259.0000	0.0781713	246.614
258.8000	0.0943872	246.722
258.6000	0.102607	246.832
258.4000	0.105021	246.941
258.2000	0.0984954	247.047
258.0000	0.109976	247.154
257.8000	0.112585	247.26
257.6000	0.0995811	247.366
257.4000	0.098271	247.472
257.2000	0.10134	247.579
257.0000	0.103266	247.686
256.8000	0.118834	247.795
256.6000	0.109619	247.907
256.4000	0.108804	248.02
256.2000	0.0921714	248.134
256.0000	0.0786705	248.248
255.8000	0.0807354	248.359
255.6000	0.0809617	248.472
255.4000	0.0788676	248.588
255.2000	0.0620081	248.705
255.0000	0.0647295	248.823
254.8000	0.0680041	248.941
254.6000	0.0655701	249.06
254.4000	0.0676932	249.179
254.2000	0.0566785	249.296
254.0000	0.0555837	249.414
253.8000	0.0474279	249.529
253.6000	0.0431502	249.644
253.4000	0.0499482	249.762
253.2000	0.0466976	249.881
253.0000	0.047713	250
252.8000	0.0347764	250.116
252.6000	0.02946	250.232
252.4000	0.0165114	250.346
252.2000	0.013658	250.461
252.0000	0.0100794	250.576
251.8000	0.0157812	250.692
251.6000	0.0149403	250.807
251.4000	0.017108	250.923
251.2000	0.0199559	251.04
251.0000	0.0297527	251.155
250.8000	0.023066	251.27
250.6000	0.0186965	251.381
250.4000	0.00843453	251.49
250.2000	0.0116105	251.603
250.0000	0.0280159	251.717
249.8000	0.030884	251.832
249.6000	0.0401502	251.949
249.4000	0.0284731	252.063
249.2000	0.0150676	252.178
249.0000	-0.00396156	252.292
248.8000	-0.013567	252.408
248.6000	-0.0019691	252.526
248.4000	-0.0154481	252.645
248.2000	-0.0240507	252.768
248.0000	-0.0325489	252.892
247.8000	-0.0390089	253.022
247.6000	-0.0367162	253.152
247.4000	-0.0668669	253.282
247.2000	-0.0822518	253.412
247.0000	-0.0891774	253.545
246.8000	-0.100776	253.682
246.6000	-0.0975101	253.82
246.4000	-0.0983758	253.962
246.2000	-0.109115	254.106
246.0000	-0.136646	254.25
245.8000	-0.165209	254.394
245.6000	-0.203272	254.542
245.4000	-0.212222	254.688
245.2000	-0.205087	254.837
245.0000	-0.210863	254.989
244.8000	-0.223632	255.143
244.6000	-0.228755	255.303
244.4000	-0.237663	255.464
244.2000	-0.25271	255.625
244.0000	-0.27164	255.789
243.8000	-0.290404	255.956
243.6000	-0.318642	256.128
243.4000	-0.34449	256.305
243.2000	-0.365556	256.485
243.0000	-0.390824	256.669
242.8000	-0.397786	256.854
242.6000	-0.435179	257.044
242.4000	-0.474101	257.239
242.2000	-0.508419	257.44
242.0000	-0.54549	257.642
241.8000	-0.578097	257.847
241.6000	-0.607122	258.057
241.4000	-0.649873	258.272
241.2000	-0.68673	258.488
241.0000	-0.716624	258.706
240.8000	-0.733638	258.93
240.6000	-0.76044	259.155
240.4000	-0.791437	259.386
240.2000	-0.828094	259.621
240.0000	-0.869086	259.859
239.8000	-0.910415	260.1
239.6000	-0.954461	260.344
239.4000	-0.990854	260.593
239.2000	-1.0424	260.846
239.0000	-1.09143	261.102
238.8000	-1.13344	261.364
238.6000	-1.17894	261.626
238.4000	-1.22882	261.895
238.2000	-1.28994	262.169
238.0000	-1.36456	262.444
237.8000	-1.41522	262.722
237.6000	-1.4686	263.005
237.4000	-1.51608	263.289
237.2000	-1.58621	263.579
237.0000	-1.63532	263.873
236.8000	-1.69452	264.17
236.6000	-1.74327	264.471
236.4000	-1.81963	264.776
236.2000	-1.89865	265.086
236.0000	-1.97535	265.401
235.8000	-2.04561	265.719
235.6000	-2.10704	266.041
235.4000	-2.17249	266.365
235.2000	-2.22679	266.692
235.0000	-2.30936	267.025
234.8000	-2.38058	267.364
234.6000	-2.47408	267.705
234.4000	-2.53677	268.046
234.2000	-2.60438	268.393
234.0000	-2.67634	268.742
233.8000	-2.75172	269.094
233.6000	-2.81441	269.449
233.4000	-2.87593	269.806
233.2000	-2.93891	270.162
233.0000	-2.99636	270.52
232.8000	-3.06914	270.879
232.6000	-3.13051	271.242
232.4000	-3.21022	271.604
232.2000	-3.27887	271.967
232.0000	-3.34349	272.328
231.8000	-3.42956	272.689
231.6000	-3.4896	273.05
231.4000	-3.57814	273.409
231.2000	-3.65843	273.772
231.0000	-3.72194	274.135
230.8000	-3.79693	274.498
230.6000	-3.8711	274.864
230.4000	-3.92461	275.232
230.2000	-4.00277	275.603
230.0000	-4.07699	275.974
229.8000	-4.15067	276.346
229.6000	-4.21105	276.719
229.4000	-4.28662	277.094
229.2000	-4.34476	277.47
229.0000	-4.39571	277.847
228.8000	-4.46877	278.226
228.6000	-4.50225	278.602
228.4000	-4.56442	278.978
228.2000	-4.61182	279.354
228.0000	-4.68233	279.73
227.8000	-4.75076	280.106
227.6000	-4.83096	280.48
227.4000	-4.91237	280.854
227.2000	-4.97025	281.229
227.0000	-5.01668	281.606
226.8000	-5.08403	281.982
226.6000	-5.13731	282.359
226.4000	-5.19465	282.735
226.2000	-5.25201	283.113
226.0000	-5.30509	283.493
225.8000	-5.36401	283.875
225.6000	-5.41521	284.257
225.4000	-5.46105	284.642
225.2000	-5.50361	285.026
225.0000	-5.54801	285.411
224.8000	-5.57836	285.799
224.6000	-5.59029	286.187
224.4000	-5.61369	286.578
224.2000	-5.62667	286.969
224.0000	-5.65205	287.364
223.8000	-5.69651	287.761
223.6000	-5.73073	288.162
223.4000	-5.77569	288.567
223.2000	-5.79058	288.976
223.0000	-5.80847	289.387
222.8000	-5.83693	289.8
222.6000	-5.89013	290.217
222.4000	-5.9091	290.638
222.2000	-5.91635	291.063
222.0000	-5.94974	291.492
221.8000	-5.99032	291.923
221.6000	-6.03999	292.357
221.4000	-6.078	292.794
221.2000	-6.0605	293.236
221.0000	-6.06886	293.679
220.8000	-6.07897	294.125
220.6000	-6.1079	294.577
220.4000	-6.1338	295.033
220.2000	-6.12787	295.496
220.0000	-6.15042	295.964
219.8000	-6.14594	296.439
219.6000	-6.16484	296.919
219.4000	-6.1816	297.406
219.2000	-6.17492	297.903
219.0000	-6.15463	298.408
218.8000	-6.15205	298.921
218.6000	-6.1821	299.442
218.4000	-6.19353	299.971
218.2000	-6.19241	300.512
218.0000	-6.18596	301.061
217.8000	-6.16924	301.616
217.6000	-6.21672	302.181
217.4000	-6.25363	302.752
217.2000	-6.24783	303.333
217.0000	-6.27271	303.924
216.8000	-6.2712	304.526
216.6000	-6.30171	305.138
216.4000	-6.34101	305.759
216.2000	-6.34632	306.389
216.0000	-6.35524	307.032
215.8000	-6.37691	307.686
215.6000	-6.38695	308.355
215.4000	-6.43024	309.039
215.2000	-6.45246	309.74
215.0000	-6.4731	310.457
214.8000	-6.46345	311.193
214.6000	-6.4727	311.945
214.4000	-6.5031	312.719
214.2000	-6.51621	313.514
214.0000	-6.55522	314.329
213.8000	-6.55639	315.166
213.6000	-6.58131	316.025
213.4000	-6.59142	316.909
213.2000	-6.60365	317.817
213.0000	-6.63895	318.749
212.8000	-6.67509	319.705
212.6000	-6.69872	320.686
212.4000	-6.76996	321.693
212.2000	-6.79908	322.722
212.0000	-6.81508	323.777
211.8000	-6.85936	324.862
211.6000	-6.91295	325.973
211.4000	-6.95125	327.109
211.2000	-7.00042	328.276
211.0000	-7.05753	329.47
210.8000	-7.1056	330.696
210.6000	-7.18108	331.956
210.4000	-7.24028	333.247
210.2000	-7.26399	334.576
210.0000	-7.29317	335.945
209.8000	-7.29574	337.351
209.6000	-7.32589	338.795
209.4000	-7.33629	340.28
209.2000	-7.38149	341.801
209.0000	-7.34458	343.36
208.8000	-7.33003	344.958
208.6000	-7.34545	346.597
208.4000	-7.36601	348.279
208.2000	-7.35445	350.003
208.0000	-7.3309	351.768
207.8000	-7.31251	353.577
207.6000	-7.2489	355.432
207.4000	-7.19852	357.328
207.2000	-7.12296	359.271
207.0000	-7.04195	361.262
206.8000	-6.95986	363.305
206.6000	-6.88312	365.398
206.4000	-6.80574	367.546
206.2000	-6.76022	369.745
206.0000	-6.68327	371.996
205.8000	-6.5714	374.302
205.6000	-6.48181	376.661
205.4000	-6.34874	379.077
205.2000	-6.21405	381.549
205.0000	-6.02476	384.073
204.8000	-5.85548	386.657
204.6000	-5.76541	389.303
204.4000	-5.64407	392.012
204.2000	-5.49626	394.777
204.0000	-5.32658	397.602
203.8000	-5.23366	400.494
203.6000	-5.04636	403.454
203.4000	-4.91691	406.486
203.2000	-4.70729	409.591
203.0000	-4.52281	412.772
202.8000	-4.21937	416.03
202.6000	-4.00671	419.365
202.4000	-3.77174	422.774
202.2000	-3.47646	426.257
202.0000	-3.21329	429.814
201.8000	-2.9315	433.443
201.6000	-2.59896	437.15
201.4000	-2.25384	440.939
201.2000	-2.01681	444.815
201.0000	-1.75865	448.774
200.8000	-1.39024	452.812
200.6000	-0.985032	456.938
200.4000	-0.472489	461.155
200.2000	-0.155692	465.464
200.0000	0.034698	469.87
199.8000	0.424657	474.375
199.6000	0.72633	478.991
199.4000	1.14641	483.718
199.2000	1.60123	488.554
199.0000	2.09476	493.499
198.8000	2.30899	498.566
198.6000	2.55175	503.748
198.4000	2.99941	509.051
198.2000	3.36283	514.483
198.0000	3.55472	520.05
197.8000	3.68355	525.754
197.6000	4.01812	531.592
197.4000	4.69731	537.561
197.2000	5.11178	543.673
197.0000	5.16236	549.944
196.8000	5.17781	556.385
196.6000	5.38081	562.998
196.4000	5.58444	569.792
196.2000	5.97709	576.792
196.0000	6.31701	584.006
195.8000	6.44434	591.447
195.6000	6.70149	599.116
195.4000	7.08852	607.029
195.2000	7.39976	615.2
195.0000	7.63857	623.636
