TITLE	PE17_GEF_Assay_Scan
DATA TYPE	
ORIGIN	JASCO
OWNER	
DATE	18/09/10
TIME	16:27:25
SPECTROMETER/DATA SYSTEM	JASCO Corp., J-715, Rev. 1.00
RESOLUTION	
DELTAX	-0.2
XUNITS	NANOMETERS
YUNITS	CD[mdeg]
Y2UNITS	HT[V]
FIRSTX	280.0000
LASTX	195.0000
NPOINTS	426
FIRSTY	0.06078
MAXY	7.13245
MINY	-6.34505
XYDATA
280.0000	0.0607846	237.436
279.8000	0.0594087	237.446
279.6000	0.0693374	237.464
279.4000	0.071275	237.491
279.2000	0.0774293	237.525
279.0000	0.0780175	237.566
278.8000	0.0734291	237.615
278.6000	0.0679369	237.671
278.4000	0.0665953	237.731
278.2000	0.0696087	237.8
278.0000	0.0695381	237.878
277.8000	0.0634806	237.966
277.6000	0.0627677	238.06
277.4000	0.0579765	238.161
277.2000	0.0660486	238.264
277.0000	0.0718541	238.368
276.8000	0.0693128	238.474
276.6000	0.0765481	238.577
276.4000	0.0810242	238.682
276.2000	0.0838192	238.785
276.0000	0.0819156	238.89
275.8000	0.0831478	238.996
275.6000	0.0812838	239.104
275.4000	0.0906103	239.211
275.2000	0.0981448	239.317
275.0000	0.0966992	239.422
274.8000	0.102409	239.528
274.6000	0.102021	239.633
274.4000	0.108116	239.74
274.2000	0.0988305	239.846
274.0000	0.0937977	239.952
273.8000	0.0901899	240.059
273.6000	0.101945	240.166
273.4000	0.0954175	240.275
273.2000	0.106287	240.384
273.0000	0.112194	240.491
272.8000	0.108105	240.599
272.6000	0.0955242	240.709
272.4000	0.0869796	240.821
272.2000	0.0908644	240.934
272.0000	0.0890388	241.052
271.8000	0.0925813	241.172
271.6000	0.0966634	241.292
271.4000	0.0899439	241.414
271.2000	0.0935616	241.538
271.0000	0.0829325	241.66
270.8000	0.0771391	241.783
270.6000	0.0785626	241.904
270.4000	0.0606389	242.027
270.2000	0.0605973	242.15
270.0000	0.0636727	242.27
269.8000	0.0708116	242.389
269.6000	0.0767006	242.503
269.4000	0.0786277	242.617
269.2000	0.0877987	242.728
269.0000	0.0798852	242.836
268.8000	0.0784894	242.941
268.6000	0.0922126	243.046
268.4000	0.0965339	243.15
268.2000	0.0991654	243.252
268.0000	0.106195	243.356
267.8000	0.110074	243.459
267.6000	0.115884	243.562
267.4000	0.104781	243.666
267.2000	0.108686	243.77
267.0000	0.109489	243.876
266.8000	0.118993	243.977
266.6000	0.117741	244.078
266.4000	0.107956	244.179
266.2000	0.106633	244.278
266.0000	0.105836	244.378
265.8000	0.0993553	244.48
265.6000	0.100158	244.583
265.4000	0.097018	244.684
265.2000	0.0966814	244.781
265.0000	0.0996552	244.874
264.8000	0.0978749	244.967
264.6000	0.109622	245.057
264.4000	0.109488	245.145
264.2000	0.0986446	245.235
264.0000	0.0855688	245.325
263.8000	0.0685456	245.417
263.6000	0.0814126	245.505
263.4000	0.0872731	245.597
263.2000	0.0869633	245.687
263.0000	0.0953078	245.776
262.8000	0.101013	245.862
262.6000	0.0872309	245.951
262.4000	0.0790079	246.043
262.2000	0.0758333	246.139
262.0000	0.08314	246.236
261.8000	0.0873555	246.334
261.6000	0.0764511	246.433
261.4000	0.0824338	246.534
261.2000	0.08437	246.636
261.0000	0.0921805	246.739
260.8000	0.0928349	246.844
260.6000	0.0861257	246.946
260.4000	0.0832831	247.049
260.2000	0.072144	247.153
260.0000	0.069772	247.26
259.8000	0.0648475	247.37
259.6000	0.0728168	247.48
259.4000	0.065653	247.585
259.2000	0.0543772	247.692
259.0000	0.0478352	247.799
258.8000	0.0542012	247.904
258.6000	0.05646	248.01
258.4000	0.0562925	248.117
258.2000	0.0535876	248.221
258.0000	0.0415703	248.328
257.8000	0.0318866	248.437
257.6000	0.0205771	248.549
257.4000	0.020273	248.66
257.2000	0.0100743	248.77
257.0000	0.0125295	248.88
256.8000	0.00885463	248.988
256.6000	0.0138056	249.1
256.4000	0.0179114	249.213
256.2000	0.00643301	249.326
256.0000	0.00111866	249.444
255.8000	-0.0020957	249.56
255.6000	-0.0122662	249.678
255.4000	-0.000734091	249.798
255.2000	-0.00347877	249.919
255.0000	3.79086E-005	250.039
254.8000	0.01069	250.157
254.6000	0.0142906	250.276
254.4000	0.0206144	250.397
254.2000	0.0185828	250.521
254.0000	0.00995255	250.644
253.8000	0.00120044	250.768
253.6000	-0.00317979	250.891
253.4000	-0.00991726	251.013
253.2000	-0.00542808	251.134
253.0000	0.0127838	251.254
252.8000	0.00236583	251.376
252.6000	-0.00924158	251.495
252.4000	-0.00548935	251.612
252.2000	-0.0215588	251.729
252.0000	-0.0303738	251.849
251.8000	-0.0473111	251.969
251.6000	-0.0568991	252.085
251.4000	-0.0553761	252.201
251.2000	-0.0680597	252.32
251.0000	-0.0608463	252.437
250.8000	-0.0745773	252.555
250.6000	-0.0784369	252.67
250.4000	-0.095341	252.785
250.2000	-0.10968	252.898
250.0000	-0.107015	253.011
249.8000	-0.112455	253.126
249.6000	-0.133929	253.241
249.4000	-0.131895	253.356
249.2000	-0.134554	253.471
249.0000	-0.13013	253.587
248.8000	-0.133833	253.709
248.6000	-0.143476	253.831
248.4000	-0.138637	253.954
248.2000	-0.135936	254.08
248.0000	-0.136972	254.208
247.8000	-0.145456	254.341
247.6000	-0.152692	254.476
247.4000	-0.161084	254.613
247.2000	-0.170219	254.749
247.0000	-0.18196	254.888
246.8000	-0.197493	255.03
246.6000	-0.194083	255.174
246.4000	-0.207079	255.319
246.2000	-0.210897	255.466
246.0000	-0.221045	255.614
245.8000	-0.238855	255.765
245.6000	-0.26694	255.917
245.4000	-0.283921	256.071
245.2000	-0.292539	256.228
245.0000	-0.303137	256.385
244.8000	-0.308596	256.543
244.6000	-0.323813	256.706
244.4000	-0.345452	256.874
244.2000	-0.340815	257.042
244.0000	-0.36419	257.215
243.8000	-0.382966	257.391
243.6000	-0.414267	257.571
243.4000	-0.438269	257.756
243.2000	-0.451653	257.942
243.0000	-0.46263	258.133
242.8000	-0.477536	258.326
242.6000	-0.497823	258.523
242.4000	-0.522871	258.724
242.2000	-0.537935	258.933
242.0000	-0.575315	259.146
241.8000	-0.596329	259.363
241.6000	-0.617417	259.583
241.4000	-0.647036	259.806
241.2000	-0.677529	260.032
241.0000	-0.710096	260.263
240.8000	-0.72384	260.497
240.6000	-0.737779	260.735
240.4000	-0.772173	260.978
240.2000	-0.801708	261.225
240.0000	-0.838373	261.475
239.8000	-0.881724	261.73
239.6000	-0.914754	261.989
239.4000	-0.951245	262.25
239.2000	-0.992913	262.516
239.0000	-1.03316	262.785
238.8000	-1.066	263.062
238.6000	-1.11407	263.342
238.4000	-1.14326	263.626
238.2000	-1.19289	263.914
238.0000	-1.23938	264.205
237.8000	-1.28091	264.501
237.6000	-1.32291	264.801
237.4000	-1.35995	265.104
237.2000	-1.3989	265.412
237.0000	-1.42773	265.724
236.8000	-1.49014	266.038
236.6000	-1.53768	266.355
236.4000	-1.56973	266.676
236.2000	-1.61108	267.001
236.0000	-1.63881	267.33
235.8000	-1.67732	267.664
235.6000	-1.71269	268.001
235.4000	-1.76773	268.34
235.2000	-1.824	268.683
235.0000	-1.88858	269.031
234.8000	-1.94145	269.382
234.6000	-2.00929	269.737
234.4000	-2.07653	270.091
234.2000	-2.13749	270.453
234.0000	-2.17831	270.819
233.8000	-2.24151	271.187
233.6000	-2.31609	271.557
233.4000	-2.39366	271.93
233.2000	-2.46253	272.302
233.0000	-2.52962	272.676
232.8000	-2.59023	273.054
232.6000	-2.63837	273.432
232.4000	-2.70515	273.809
232.2000	-2.75615	274.185
232.0000	-2.82159	274.561
231.8000	-2.872	274.937
231.6000	-2.92782	275.314
231.4000	-2.98548	275.687
231.2000	-3.0564	276.062
231.0000	-3.11617	276.439
230.8000	-3.17316	276.817
230.6000	-3.22132	277.197
230.4000	-3.29124	277.579
230.2000	-3.37109	277.963
230.0000	-3.4359	278.347
229.8000	-3.49895	278.734
229.6000	-3.57229	279.126
229.4000	-3.61392	279.521
229.2000	-3.67103	279.918
229.0000	-3.75122	280.314
228.8000	-3.8312	280.711
228.6000	-3.88481	281.107
228.4000	-3.94663	281.501
228.2000	-3.98993	281.891
228.0000	-4.05066	282.28
227.8000	-4.14344	282.668
227.6000	-4.18139	283.057
227.4000	-4.232	283.445
227.2000	-4.30468	283.832
227.0000	-4.35417	284.217
226.8000	-4.39693	284.6
226.6000	-4.45986	284.982
226.4000	-4.50366	285.365
226.2000	-4.53024	285.752
226.0000	-4.5494	286.139
225.8000	-4.61163	286.53
225.6000	-4.65463	286.922
225.4000	-4.71947	287.316
225.2000	-4.74142	287.713
225.0000	-4.79002	288.107
224.8000	-4.83468	288.503
224.6000	-4.85818	288.9
224.4000	-4.89702	289.299
224.2000	-4.95131	289.701
224.0000	-4.98606	290.104
223.8000	-5.03786	290.51
223.6000	-5.07303	290.919
223.4000	-5.12386	291.329
223.2000	-5.1792	291.742
223.0000	-5.19519	292.157
222.8000	-5.20826	292.572
222.6000	-5.2434	292.989
222.4000	-5.25875	293.409
222.2000	-5.26997	293.831
222.0000	-5.31903	294.255
221.8000	-5.35571	294.681
221.6000	-5.38277	295.108
221.4000	-5.406	295.537
221.2000	-5.4424	295.969
221.0000	-5.47776	296.403
220.8000	-5.492	296.839
220.6000	-5.51137	297.276
220.4000	-5.54188	297.715
220.2000	-5.58145	298.16
220.0000	-5.60959	298.611
219.8000	-5.63575	299.067
219.6000	-5.67038	299.527
219.4000	-5.68609	299.991
219.2000	-5.70277	300.462
219.0000	-5.71649	300.94
218.8000	-5.73993	301.424
218.6000	-5.77638	301.912
218.4000	-5.78654	302.405
218.2000	-5.80535	302.905
218.0000	-5.79859	303.413
217.8000	-5.82678	303.929
217.6000	-5.8339	304.453
217.4000	-5.83362	304.983
217.2000	-5.86334	305.52
217.0000	-5.85217	306.066
216.8000	-5.87406	306.621
216.6000	-5.87834	307.184
216.4000	-5.87476	307.756
216.2000	-5.89044	308.335
216.0000	-5.87604	308.926
215.8000	-5.89581	309.527
215.6000	-5.89902	310.14
215.4000	-5.93062	310.765
215.2000	-5.94328	311.401
215.0000	-5.94274	312.048
214.8000	-5.93751	312.71
214.6000	-5.92667	313.387
214.4000	-5.93142	314.079
214.2000	-5.91125	314.788
214.0000	-5.90176	315.513
213.8000	-5.94663	316.253
213.6000	-5.97192	317.012
213.4000	-5.98935	317.791
213.2000	-6.01747	318.588
213.0000	-6.01074	319.405
212.8000	-6.02714	320.243
212.6000	-6.01213	321.098
212.4000	-6.00561	321.977
212.2000	-6.02473	322.879
212.0000	-6.05662	323.8
211.8000	-6.09468	324.742
211.6000	-6.14635	325.705
211.4000	-6.18451	326.691
211.2000	-6.18242	327.699
211.0000	-6.16415	328.732
210.8000	-6.18471	329.788
210.6000	-6.19876	330.87
210.4000	-6.2434	331.978
210.2000	-6.29686	333.115
210.0000	-6.31993	334.283
209.8000	-6.30862	335.482
209.6000	-6.34505	336.712
209.4000	-6.34361	337.974
209.2000	-6.3372	339.27
209.0000	-6.30525	340.598
208.8000	-6.27516	341.959
208.6000	-6.2105	343.35
208.4000	-6.18533	344.775
208.2000	-6.17703	346.235
208.0000	-6.1075	347.733
207.8000	-6.05314	349.267
207.6000	-5.90931	350.837
207.4000	-5.80498	352.447
207.2000	-5.73183	354.096
207.0000	-5.64321	355.783
206.8000	-5.53614	357.507
206.6000	-5.40359	359.269
206.4000	-5.32727	361.077
206.2000	-5.21907	362.934
206.0000	-5.11504	364.835
205.8000	-5.07125	366.787
205.6000	-4.98974	368.787
205.4000	-4.85072	370.831
205.2000	-4.74506	372.92
205.0000	-4.59448	375.055
204.8000	-4.47091	377.242
204.6000	-4.31929	379.479
204.4000	-4.07522	381.772
204.2000	-3.91111	384.118
204.0000	-3.8151	386.521
203.8000	-3.62819	388.984
203.6000	-3.39591	391.51
203.4000	-3.17786	394.094
203.2000	-2.99254	396.743
203.0000	-2.76271	399.452
202.8000	-2.50637	402.227
202.6000	-2.16706	405.067
202.4000	-1.8381	407.977
202.2000	-1.62299	410.952
202.0000	-1.43677	413.993
201.8000	-1.18625	417.103
201.6000	-0.975489	420.287
201.4000	-0.714981	423.55
201.2000	-0.428091	426.892
201.0000	-0.209673	430.311
200.8000	0.100011	433.807
200.6000	0.362934	437.395
200.4000	0.614952	441.079
200.2000	0.991651	444.872
200.0000	1.21018	448.777
199.8000	1.47149	452.798
199.6000	1.79287	456.939
199.4000	2.12158	461.213
199.2000	2.44908	465.62
199.0000	2.73659	470.165
198.8000	3.05306	474.862
198.6000	3.19089	479.72
198.4000	3.56262	484.752
198.2000	3.76288	489.973
198.0000	4.17407	495.395
197.8000	4.40962	501.023
197.6000	4.72491	506.864
197.4000	4.94816	512.923
197.2000	5.32959	519.229
197.0000	5.41678	525.81
196.8000	5.64461	532.679
196.6000	5.94309	539.854
196.4000	6.27465	547.354
196.2000	6.33229	555.215
196.0000	6.27619	563.46
195.8000	6.54943	572.116
195.6000	6.75586	581.205
195.4000	6.74713	590.746
195.2000	6.95414	600.769
195.0000	7.13245	611.314
