TITLE	PE22_GEF_Assay_Scan
DATA TYPE	
ORIGIN	JASCO
OWNER	
DATE	18/09/12
TIME	11:00:13
SPECTROMETER/DATA SYSTEM	JASCO Corp., J-715, Rev. 1.00
RESOLUTION	
DELTAX	-0.2
XUNITS	NANOMETERS
YUNITS	CD[mdeg]
Y2UNITS	HT[V]
FIRSTX	280.0000
LASTX	195.0000
NPOINTS	426
FIRSTY	-0.16065
MAXY	8.46012
MINY	-8.70140
XYDATA
280.0000	-0.160648	237.766
279.8000	-0.15787	237.778
279.6000	-0.162201	237.798
279.4000	-0.170238	237.825
279.2000	-0.163085	237.859
279.0000	-0.161372	237.901
278.8000	-0.164125	237.949
278.6000	-0.178873	238.005
278.4000	-0.168643	238.066
278.2000	-0.170959	238.136
278.0000	-0.166089	238.214
277.8000	-0.167174	238.302
277.6000	-0.17398	238.395
277.4000	-0.180184	238.497
277.2000	-0.180501	238.6
277.0000	-0.183428	238.702
276.8000	-0.169437	238.805
276.6000	-0.165566	238.908
276.4000	-0.153433	239.009
276.2000	-0.154298	239.11
276.0000	-0.143683	239.213
275.8000	-0.139274	239.316
275.6000	-0.140111	239.422
275.4000	-0.151542	239.527
275.2000	-0.14578	239.632
275.0000	-0.144572	239.736
274.8000	-0.125678	239.84
274.6000	-0.124535	239.941
274.4000	-0.124615	240.044
274.2000	-0.126325	240.145
274.0000	-0.141724	240.25
273.8000	-0.15703	240.355
273.6000	-0.163965	240.462
273.4000	-0.162668	240.571
273.2000	-0.171373	240.679
273.0000	-0.163413	240.787
272.8000	-0.175371	240.894
272.6000	-0.181245	241.003
272.4000	-0.186396	241.115
272.2000	-0.181477	241.23
272.0000	-0.182302	241.346
271.8000	-0.186274	241.461
271.6000	-0.181351	241.577
271.4000	-0.179106	241.696
271.2000	-0.18109	241.817
271.0000	-0.167094	241.935
270.8000	-0.179436	242.053
270.6000	-0.18252	242.171
270.4000	-0.169567	242.289
270.2000	-0.169486	242.407
270.0000	-0.156154	242.523
269.8000	-0.157267	242.639
269.6000	-0.171011	242.749
269.4000	-0.183625	242.858
269.2000	-0.180628	242.966
269.0000	-0.183012	243.075
268.8000	-0.183676	243.18
268.6000	-0.178535	243.283
268.4000	-0.170844	243.385
268.2000	-0.165648	243.485
268.0000	-0.168873	243.587
267.8000	-0.158443	243.688
267.6000	-0.165771	243.788
267.4000	-0.155047	243.888
267.2000	-0.162174	243.989
267.0000	-0.156345	244.09
266.8000	-0.136575	244.188
266.6000	-0.12845	244.288
266.4000	-0.132866	244.387
266.2000	-0.144463	244.485
266.0000	-0.136442	244.58
265.8000	-0.134247	244.678
265.6000	-0.149385	244.776
265.4000	-0.148821	244.874
265.2000	-0.151365	244.968
265.0000	-0.160577	245.059
264.8000	-0.16357	245.153
264.6000	-0.158326	245.246
264.4000	-0.159262	245.335
264.2000	-0.15759	245.426
264.0000	-0.16808	245.517
263.8000	-0.166042	245.606
263.6000	-0.172621	245.689
263.4000	-0.163865	245.778
263.2000	-0.168327	245.867
263.0000	-0.161446	245.956
262.8000	-0.159084	246.041
262.6000	-0.166473	246.128
262.4000	-0.161676	246.217
262.2000	-0.166614	246.308
262.0000	-0.172841	246.399
261.8000	-0.191914	246.492
261.6000	-0.197022	246.585
261.4000	-0.194778	246.678
261.2000	-0.182093	246.773
261.0000	-0.188925	246.873
260.8000	-0.18689	246.976
260.6000	-0.189156	247.079
260.4000	-0.194969	247.183
260.2000	-0.198856	247.29
260.0000	-0.197412	247.397
259.8000	-0.19219	247.504
259.6000	-0.191391	247.613
259.4000	-0.195733	247.717
259.2000	-0.188974	247.824
259.0000	-0.176737	247.932
258.8000	-0.168344	248.038
258.6000	-0.182583	248.145
258.4000	-0.181952	248.253
258.2000	-0.176514	248.357
258.0000	-0.177493	248.463
257.8000	-0.181975	248.567
257.6000	-0.186632	248.674
257.4000	-0.187667	248.781
257.2000	-0.192488	248.888
257.0000	-0.190477	248.997
256.8000	-0.196296	249.108
256.6000	-0.193825	249.219
256.4000	-0.19683	249.331
256.2000	-0.206093	249.445
256.0000	-0.199453	249.561
255.8000	-0.201338	249.678
255.6000	-0.207064	249.797
255.4000	-0.218091	249.918
255.2000	-0.207483	250.04
255.0000	-0.200634	250.16
254.8000	-0.195143	250.28
254.6000	-0.203312	250.398
254.4000	-0.210273	250.519
254.2000	-0.202324	250.64
254.0000	-0.193733	250.76
253.8000	-0.201193	250.878
253.6000	-0.201421	250.996
253.4000	-0.214678	251.114
253.2000	-0.21509	251.236
253.0000	-0.214619	251.357
252.8000	-0.210255	251.476
252.6000	-0.211075	251.593
252.4000	-0.206338	251.708
252.2000	-0.226966	251.825
252.0000	-0.225854	251.941
251.8000	-0.20986	252.06
251.6000	-0.236667	252.174
251.4000	-0.256925	252.289
251.2000	-0.256216	252.406
251.0000	-0.266532	252.522
250.8000	-0.267507	252.638
250.6000	-0.264914	252.752
250.4000	-0.272355	252.864
250.2000	-0.273337	252.975
250.0000	-0.275709	253.088
249.8000	-0.285199	253.201
249.6000	-0.295362	253.317
249.4000	-0.285691	253.434
249.2000	-0.283961	253.552
249.0000	-0.290052	253.67
248.8000	-0.292635	253.79
248.6000	-0.293504	253.911
248.4000	-0.292881	254.034
248.2000	-0.300624	254.16
248.0000	-0.308863	254.288
247.8000	-0.319418	254.418
247.6000	-0.329957	254.549
247.4000	-0.345581	254.682
247.2000	-0.35528	254.816
247.0000	-0.376082	254.953
246.8000	-0.390115	255.094
246.6000	-0.408353	255.235
246.4000	-0.423763	255.379
246.2000	-0.433999	255.525
246.0000	-0.441249	255.673
245.8000	-0.434959	255.823
245.6000	-0.451246	255.977
245.4000	-0.464394	256.132
245.2000	-0.474333	256.291
245.0000	-0.472476	256.451
244.8000	-0.495335	256.614
244.6000	-0.510941	256.782
244.4000	-0.52337	256.951
244.2000	-0.528575	257.12
244.0000	-0.537801	257.292
243.8000	-0.566396	257.466
243.6000	-0.596761	257.642
243.4000	-0.626605	257.823
243.2000	-0.64324	258.007
243.0000	-0.678803	258.194
242.8000	-0.718597	258.385
242.6000	-0.745177	258.577
242.4000	-0.78686	258.775
242.2000	-0.821775	258.98
242.0000	-0.852265	259.188
241.8000	-0.892519	259.4
241.6000	-0.925559	259.616
241.4000	-0.968987	259.838
241.2000	-1.01868	260.063
241.0000	-1.03967	260.294
240.8000	-1.06864	260.529
240.6000	-1.10269	260.766
240.4000	-1.16597	261.009
240.2000	-1.21018	261.257
240.0000	-1.24503	261.508
239.8000	-1.29435	261.764
239.6000	-1.33783	262.023
239.4000	-1.40596	262.284
239.2000	-1.45599	262.551
239.0000	-1.49409	262.823
238.8000	-1.55569	263.102
238.6000	-1.61439	263.382
238.4000	-1.68307	263.668
238.2000	-1.75564	263.959
238.0000	-1.82564	264.254
237.8000	-1.89937	264.553
237.6000	-1.94878	264.856
237.4000	-2.02617	265.162
237.2000	-2.09005	265.472
237.0000	-2.18121	265.787
236.8000	-2.2574	266.105
236.6000	-2.32215	266.428
236.4000	-2.40463	266.755
236.2000	-2.49561	267.085
236.0000	-2.57386	267.422
235.8000	-2.64845	267.766
235.6000	-2.73691	268.112
235.4000	-2.81903	268.461
235.2000	-2.90762	268.816
235.0000	-3.00835	269.174
234.8000	-3.08539	269.538
234.6000	-3.17221	269.908
234.4000	-3.2529	270.281
234.2000	-3.34563	270.66
234.0000	-3.43922	271.042
233.8000	-3.53179	271.429
233.6000	-3.61748	271.82
233.4000	-3.70484	272.213
233.2000	-3.79955	272.607
233.0000	-3.89474	273.004
232.8000	-3.98673	273.404
232.6000	-4.07648	273.807
232.4000	-4.1577	274.21
232.2000	-4.24914	274.614
232.0000	-4.33758	275.018
231.8000	-4.42743	275.423
231.6000	-4.52298	275.827
231.4000	-4.59526	276.232
231.2000	-4.65752	276.641
231.0000	-4.73911	277.05
230.8000	-4.82864	277.459
230.6000	-4.91549	277.867
230.4000	-5.01649	278.277
230.2000	-5.09544	278.693
230.0000	-5.17016	279.111
229.8000	-5.26276	279.529
229.6000	-5.34051	279.949
229.4000	-5.43616	280.37
229.2000	-5.53104	280.792
229.0000	-5.60511	281.211
228.8000	-5.70494	281.631
228.6000	-5.78691	282.048
228.4000	-5.89047	282.463
228.2000	-5.96257	282.876
228.0000	-6.02677	283.288
227.8000	-6.09151	283.699
227.6000	-6.14548	284.107
227.4000	-6.22551	284.51
227.2000	-6.29375	284.911
227.0000	-6.33353	285.315
226.8000	-6.39582	285.718
226.6000	-6.43992	286.121
226.4000	-6.49416	286.523
226.2000	-6.52614	286.929
226.0000	-6.57689	287.336
225.8000	-6.6141	287.744
225.6000	-6.67018	288.153
225.4000	-6.70639	288.565
225.2000	-6.75885	288.979
225.0000	-6.78483	289.394
224.8000	-6.79263	289.81
224.6000	-6.81693	290.227
224.4000	-6.82961	290.646
224.2000	-6.86406	291.067
224.0000	-6.88736	291.491
223.8000	-6.89964	291.918
223.6000	-6.93746	292.348
223.4000	-6.95906	292.778
223.2000	-6.96791	293.211
223.0000	-6.98213	293.648
222.8000	-6.9986	294.087
222.6000	-7.00287	294.528
222.4000	-7.01133	294.972
222.2000	-7.0613	295.418
222.0000	-7.12361	295.868
221.8000	-7.15094	296.321
221.6000	-7.18925	296.777
221.4000	-7.21427	297.236
221.2000	-7.27083	297.695
221.0000	-7.29221	298.157
220.8000	-7.29902	298.624
220.6000	-7.32229	299.095
220.4000	-7.36001	299.57
220.2000	-7.37644	300.048
220.0000	-7.39709	300.53
219.8000	-7.41918	301.017
219.6000	-7.43195	301.512
219.4000	-7.42772	302.015
219.2000	-7.42696	302.525
219.0000	-7.4353	303.043
218.8000	-7.44526	303.568
218.6000	-7.45133	304.103
218.4000	-7.45917	304.647
218.2000	-7.4721	305.2
218.0000	-7.49554	305.762
217.8000	-7.48983	306.333
217.6000	-7.44463	306.914
217.4000	-7.46482	307.505
217.2000	-7.48633	308.108
217.0000	-7.50158	308.724
216.8000	-7.50354	309.349
216.6000	-7.48302	309.985
216.4000	-7.50101	310.63
216.2000	-7.48585	311.285
216.0000	-7.46303	311.953
215.8000	-7.45743	312.634
215.6000	-7.47011	313.327
215.4000	-7.48628	314.036
215.2000	-7.52275	314.759
215.0000	-7.55239	315.499
214.8000	-7.58753	316.257
214.6000	-7.58535	317.034
214.4000	-7.58602	317.831
214.2000	-7.61088	318.651
214.0000	-7.64379	319.494
213.8000	-7.70211	320.359
213.6000	-7.75065	321.25
213.4000	-7.78046	322.167
213.2000	-7.81096	323.108
213.0000	-7.85377	324.075
212.8000	-7.87321	325.067
212.6000	-7.8891	326.087
212.4000	-7.90411	327.134
212.2000	-7.95859	328.208
212.0000	-7.9902	329.308
211.8000	-8.05949	330.433
211.6000	-8.09895	331.585
211.4000	-8.15202	332.764
211.2000	-8.18715	333.976
211.0000	-8.2241	335.219
210.8000	-8.27158	336.497
210.6000	-8.34673	337.806
210.4000	-8.39299	339.152
210.2000	-8.40982	340.535
210.0000	-8.44973	341.958
209.8000	-8.5127	343.419
209.6000	-8.54627	344.918
209.4000	-8.58374	346.456
209.2000	-8.62473	348.039
209.0000	-8.63348	349.665
208.8000	-8.68736	351.332
208.6000	-8.7014	353.043
208.4000	-8.70069	354.796
208.2000	-8.66562	356.588
208.0000	-8.63899	358.428
207.8000	-8.56551	360.315
207.6000	-8.50744	362.25
207.4000	-8.48147	364.231
207.2000	-8.39492	366.26
207.0000	-8.32454	368.34
206.8000	-8.18325	370.472
206.6000	-8.1165	372.661
206.4000	-7.98855	374.907
206.2000	-7.83289	377.208
206.0000	-7.70857	379.563
205.8000	-7.55619	381.975
205.6000	-7.409	384.445
205.4000	-7.27694	386.974
205.2000	-7.10633	389.563
205.0000	-6.91984	392.211
204.8000	-6.73302	394.922
204.6000	-6.53175	397.698
204.4000	-6.3596	400.542
204.2000	-6.13375	403.451
204.0000	-5.98083	406.428
203.8000	-5.75819	409.474
203.6000	-5.50526	412.591
203.4000	-5.33635	415.784
203.2000	-5.09445	419.057
203.0000	-4.91766	422.411
202.8000	-4.68217	425.843
202.6000	-4.33762	429.362
202.4000	-4.06295	432.958
202.2000	-3.74851	436.63
202.0000	-3.39557	440.383
201.8000	-3.05857	444.222
201.6000	-2.68393	448.144
201.4000	-2.37059	452.157
201.2000	-2.02877	456.258
201.0000	-1.74261	460.447
200.8000	-1.1758	464.723
200.6000	-0.675926	469.093
200.4000	-0.307953	473.554
200.2000	0.146783	478.122
200.0000	0.56615	482.806
199.8000	0.89747	487.606
199.6000	1.17216	492.523
199.4000	1.46486	497.562
199.2000	1.88846	502.713
199.0000	2.4548	507.98
198.8000	3.00583	513.376
198.6000	3.31511	518.9
198.4000	3.71332	524.561
198.2000	4.40044	530.362
198.0000	4.73715	536.311
197.8000	5.11684	542.408
197.6000	5.6748	548.65
197.4000	6.01239	555.035
197.2000	6.44752	561.565
197.0000	6.89547	568.263
196.8000	7.15618	575.143
196.6000	7.53199	582.214
196.4000	7.64538	589.482
196.2000	7.57095	596.977
196.0000	7.92069	604.705
195.8000	8.46012	612.672
195.6000	8.19099	620.877
195.4000	7.66399	629.334
195.2000	7.70412	638.056
195.0000	8.31502	647.063
