TITLE	PE30_GEF_Assay_Scan
DATA TYPE	
ORIGIN	JASCO
OWNER	
DATE	18/09/14
TIME	12:24:13
SPECTROMETER/DATA SYSTEM	JASCO Corp., J-715, Rev. 1.00
RESOLUTION	
DELTAX	-0.2
XUNITS	NANOMETERS
YUNITS	CD[mdeg]
Y2UNITS	HT[V]
FIRSTX	280.0000
LASTX	195.0000
NPOINTS	426
FIRSTY	-0.18464
MAXY	8.97308
MINY	-8.80317
XYDATA
280.0000	-0.184635	237.792
279.8000	-0.186623	237.803
279.6000	-0.167744	237.821
279.4000	-0.161781	237.847
279.2000	-0.174523	237.879
279.0000	-0.180763	237.917
278.8000	-0.180432	237.965
278.6000	-0.173009	238.021
278.4000	-0.172284	238.084
278.2000	-0.175369	238.155
278.0000	-0.158291	238.232
277.8000	-0.153998	238.317
277.6000	-0.159852	238.409
277.4000	-0.157498	238.509
277.2000	-0.156663	238.612
277.0000	-0.162158	238.715
276.8000	-0.155618	238.819
276.6000	-0.15597	238.923
276.4000	-0.148891	239.027
276.2000	-0.148783	239.132
276.0000	-0.144917	239.236
275.8000	-0.152424	239.339
275.6000	-0.150311	239.441
275.4000	-0.157481	239.544
275.2000	-0.155676	239.65
275.0000	-0.160825	239.755
274.8000	-0.164446	239.86
274.6000	-0.167643	239.961
274.4000	-0.162407	240.064
274.2000	-0.16774	240.167
274.0000	-0.161654	240.27
273.8000	-0.150149	240.371
273.6000	-0.14949	240.475
273.4000	-0.150831	240.581
273.2000	-0.150269	240.687
273.0000	-0.15524	240.792
272.8000	-0.14975	240.9
272.6000	-0.151051	241.008
272.4000	-0.138088	241.118
272.2000	-0.12855	241.232
272.0000	-0.132559	241.347
271.8000	-0.126139	241.464
271.6000	-0.124463	241.581
271.4000	-0.131201	241.701
271.2000	-0.136935	241.822
271.0000	-0.147268	241.943
270.8000	-0.154725	242.063
270.6000	-0.154186	242.181
270.4000	-0.156891	242.299
270.2000	-0.150513	242.418
270.0000	-0.140368	242.536
269.8000	-0.142111	242.652
269.6000	-0.152918	242.761
269.4000	-0.15264	242.871
269.2000	-0.148416	242.98
269.0000	-0.150626	243.088
268.8000	-0.153022	243.192
268.6000	-0.145015	243.296
268.4000	-0.145243	243.399
268.2000	-0.136344	243.5
268.0000	-0.12761	243.603
267.8000	-0.124975	243.706
267.6000	-0.117256	243.807
267.4000	-0.12392	243.91
267.2000	-0.127928	244.014
267.0000	-0.128471	244.118
266.8000	-0.125106	244.219
266.6000	-0.132997	244.322
266.4000	-0.133638	244.425
266.2000	-0.142534	244.526
266.0000	-0.145214	244.625
265.8000	-0.154768	244.723
265.6000	-0.15575	244.822
265.4000	-0.171973	244.919
265.2000	-0.170306	245.014
265.0000	-0.167684	245.105
264.8000	-0.171981	245.199
264.6000	-0.185385	245.288
264.4000	-0.191515	245.375
264.2000	-0.1928	245.465
264.0000	-0.182264	245.553
263.8000	-0.190537	245.642
263.6000	-0.191732	245.727
263.4000	-0.183409	245.814
263.2000	-0.173733	245.9
263.0000	-0.166906	245.986
262.8000	-0.162344	246.074
262.6000	-0.156727	246.161
262.4000	-0.16431	246.252
262.2000	-0.183425	246.346
262.0000	-0.192312	246.44
261.8000	-0.185013	246.536
261.6000	-0.186497	246.632
261.4000	-0.192964	246.728
261.2000	-0.189615	246.824
261.0000	-0.185225	246.923
260.8000	-0.185327	247.027
260.6000	-0.196108	247.13
260.4000	-0.200162	247.234
260.2000	-0.20714	247.34
260.0000	-0.206422	247.447
259.8000	-0.217206	247.555
259.6000	-0.219233	247.664
259.4000	-0.203523	247.768
259.2000	-0.205976	247.874
259.0000	-0.201882	247.98
258.8000	-0.197674	248.084
258.6000	-0.186195	248.19
258.4000	-0.193345	248.298
258.2000	-0.187966	248.402
258.0000	-0.18462	248.507
257.8000	-0.186057	248.613
257.6000	-0.196038	248.721
257.4000	-0.196417	248.828
257.2000	-0.198614	248.935
257.0000	-0.183406	249.041
256.8000	-0.186999	249.149
256.6000	-0.17879	249.257
256.4000	-0.167294	249.369
256.2000	-0.170058	249.482
256.0000	-0.169357	249.597
255.8000	-0.175273	249.712
255.6000	-0.189134	249.829
255.4000	-0.187106	249.946
255.2000	-0.190517	250.064
255.0000	-0.18509	250.181
254.8000	-0.186029	250.3
254.6000	-0.184719	250.422
254.4000	-0.201348	250.547
254.2000	-0.207842	250.671
254.0000	-0.190795	250.794
253.8000	-0.197948	250.916
253.6000	-0.213194	251.038
253.4000	-0.218789	251.16
253.2000	-0.224844	251.281
253.0000	-0.213308	251.401
252.8000	-0.20964	251.52
252.6000	-0.211741	251.639
252.4000	-0.210131	251.757
252.2000	-0.214504	251.876
252.0000	-0.219552	251.992
251.8000	-0.198695	252.106
251.6000	-0.189834	252.218
251.4000	-0.199259	252.33
251.2000	-0.217921	252.445
251.0000	-0.219241	252.562
250.8000	-0.211482	252.677
250.6000	-0.210007	252.789
250.4000	-0.204495	252.903
250.2000	-0.220693	253.015
250.0000	-0.221957	253.128
249.8000	-0.23351	253.24
249.6000	-0.234955	253.353
249.4000	-0.245469	253.466
249.2000	-0.265274	253.582
249.0000	-0.279796	253.7
248.8000	-0.288833	253.82
248.6000	-0.30517	253.942
248.4000	-0.307304	254.063
248.2000	-0.317232	254.185
248.0000	-0.328447	254.31
247.8000	-0.354918	254.438
247.6000	-0.369541	254.567
247.4000	-0.380264	254.698
247.2000	-0.393771	254.832
247.0000	-0.403253	254.968
246.8000	-0.422428	255.107
246.6000	-0.42391	255.246
246.4000	-0.424036	255.388
246.2000	-0.449111	255.532
246.0000	-0.449502	255.677
245.8000	-0.464311	255.823
245.6000	-0.47279	255.975
245.4000	-0.493569	256.128
245.2000	-0.500658	256.284
245.0000	-0.500685	256.443
244.8000	-0.517727	256.604
244.6000	-0.532072	256.77
244.4000	-0.562935	256.937
244.2000	-0.57041	257.105
244.0000	-0.585142	257.275
243.8000	-0.60672	257.449
243.6000	-0.623886	257.628
243.4000	-0.63744	257.812
243.2000	-0.665549	257.998
243.0000	-0.691607	258.188
242.8000	-0.709718	258.379
242.6000	-0.722923	258.574
242.4000	-0.759158	258.774
242.2000	-0.79833	258.979
242.0000	-0.825799	259.186
241.8000	-0.859131	259.399
241.6000	-0.896826	259.615
241.4000	-0.934722	259.835
241.2000	-0.972566	260.06
241.0000	-1.00452	260.289
240.8000	-1.05835	260.52
240.6000	-1.10963	260.754
240.4000	-1.15128	260.991
240.2000	-1.18573	261.234
240.0000	-1.2447	261.481
239.8000	-1.30677	261.732
239.6000	-1.34871	261.987
239.4000	-1.39287	262.245
239.2000	-1.43617	262.51
239.0000	-1.46728	262.778
238.8000	-1.52177	263.052
238.6000	-1.56808	263.328
238.4000	-1.63715	263.611
238.2000	-1.69748	263.897
238.0000	-1.74615	264.186
237.8000	-1.80358	264.48
237.6000	-1.87406	264.779
237.4000	-1.9193	265.081
237.2000	-1.98854	265.389
237.0000	-2.05277	265.702
236.8000	-2.14073	266.018
236.6000	-2.21517	266.34
236.4000	-2.28617	266.664
236.2000	-2.37335	266.993
236.0000	-2.45848	267.328
235.8000	-2.54264	267.668
235.6000	-2.61794	268.013
235.4000	-2.71482	268.36
235.2000	-2.8125	268.713
235.0000	-2.89234	269.069
234.8000	-2.96426	269.429
234.6000	-3.0661	269.792
234.4000	-3.17006	270.156
234.2000	-3.25088	270.528
234.0000	-3.33	270.902
233.8000	-3.43855	271.279
233.6000	-3.54706	271.663
233.4000	-3.63789	272.047
233.2000	-3.72325	272.434
233.0000	-3.81585	272.821
232.8000	-3.89799	273.21
232.6000	-3.95911	273.6
232.4000	-4.04665	273.989
232.2000	-4.14386	274.381
232.0000	-4.23879	274.775
231.8000	-4.3195	275.17
231.6000	-4.39067	275.564
231.4000	-4.48941	275.957
231.2000	-4.56049	276.352
231.0000	-4.65667	276.747
230.8000	-4.73203	277.145
230.6000	-4.81578	277.543
230.4000	-4.89911	277.94
230.2000	-4.97297	278.339
230.0000	-5.07309	278.743
229.8000	-5.16506	279.15
229.6000	-5.2375	279.558
229.4000	-5.31322	279.967
229.2000	-5.40974	280.374
229.0000	-5.52089	280.781
228.8000	-5.60124	281.189
228.6000	-5.66971	281.593
228.4000	-5.74133	281.996
228.2000	-5.79841	282.395
228.0000	-5.87721	282.792
227.8000	-5.95059	283.19
227.6000	-6.02926	283.588
227.4000	-6.0743	283.984
227.2000	-6.13609	284.379
227.0000	-6.19113	284.773
226.8000	-6.27169	285.166
226.6000	-6.31857	285.562
226.4000	-6.37308	285.956
226.2000	-6.40037	286.352
226.0000	-6.45144	286.749
225.8000	-6.5055	287.147
225.6000	-6.56094	287.548
225.4000	-6.58967	287.952
225.2000	-6.65146	288.358
225.0000	-6.68391	288.765
224.8000	-6.72684	289.174
224.6000	-6.78159	289.583
224.4000	-6.83727	289.994
224.2000	-6.84431	290.406
224.0000	-6.87111	290.822
223.8000	-6.91154	291.241
223.6000	-6.92248	291.664
223.4000	-6.9681	292.09
223.2000	-7.02296	292.521
223.0000	-7.05264	292.954
222.8000	-7.07689	293.387
222.6000	-7.09666	293.823
222.4000	-7.12137	294.264
222.2000	-7.16583	294.707
222.0000	-7.19713	295.151
221.8000	-7.20989	295.597
221.6000	-7.24528	296.046
221.4000	-7.28622	296.498
221.2000	-7.30004	296.954
221.0000	-7.32049	297.41
220.8000	-7.36583	297.869
220.6000	-7.37397	298.332
220.4000	-7.38359	298.799
220.2000	-7.4011	299.27
220.0000	-7.4134	299.746
219.8000	-7.43046	300.227
219.6000	-7.43248	300.711
219.4000	-7.44376	301.203
219.2000	-7.45963	301.705
219.0000	-7.45632	302.214
218.8000	-7.47511	302.73
218.6000	-7.49967	303.253
218.4000	-7.52623	303.782
218.2000	-7.51983	304.321
218.0000	-7.53231	304.868
217.8000	-7.54398	305.424
217.6000	-7.56033	305.989
217.4000	-7.57837	306.564
217.2000	-7.61367	307.148
217.0000	-7.60756	307.741
216.8000	-7.61901	308.345
216.6000	-7.62035	308.958
216.4000	-7.62407	309.581
216.2000	-7.61913	310.214
216.0000	-7.5993	310.856
215.8000	-7.58753	311.509
215.6000	-7.60216	312.175
215.4000	-7.63511	312.854
215.2000	-7.62891	313.546
215.0000	-7.63486	314.253
214.8000	-7.65177	314.976
214.6000	-7.67249	315.715
214.4000	-7.70154	316.474
214.2000	-7.72245	317.253
214.0000	-7.75754	318.052
213.8000	-7.79309	318.872
213.6000	-7.82094	319.715
213.4000	-7.89161	320.582
213.2000	-7.9716	321.472
213.0000	-8.00694	322.385
212.8000	-8.02459	323.322
212.6000	-8.05143	324.28
212.4000	-8.11318	325.261
212.2000	-8.16081	326.267
212.0000	-8.19995	327.297
211.8000	-8.24213	328.353
211.6000	-8.29179	329.434
211.4000	-8.33304	330.539
211.2000	-8.37882	331.67
211.0000	-8.41799	332.827
210.8000	-8.47829	334.013
210.6000	-8.52465	335.231
210.4000	-8.55031	336.486
210.2000	-8.5754	337.775
210.0000	-8.63581	339.1
209.8000	-8.67809	340.463
209.6000	-8.68847	341.863
209.4000	-8.72407	343.297
209.2000	-8.74803	344.773
209.0000	-8.78608	346.286
208.8000	-8.80317	347.839
208.6000	-8.78669	349.431
208.4000	-8.77039	351.062
208.2000	-8.74943	352.733
208.0000	-8.69476	354.447
207.8000	-8.65409	356.199
207.6000	-8.60719	357.99
207.4000	-8.56189	359.824
207.2000	-8.51519	361.701
207.0000	-8.41615	363.628
206.8000	-8.33421	365.603
206.6000	-8.24506	367.625
206.4000	-8.1455	369.694
206.2000	-8.0387	371.812
206.0000	-7.87706	373.979
205.8000	-7.74714	376.201
205.6000	-7.6135	378.48
205.4000	-7.45299	380.811
205.2000	-7.34834	383.192
205.0000	-7.19221	385.627
204.8000	-7.03018	388.12
204.6000	-6.83682	390.672
204.4000	-6.64548	393.282
204.2000	-6.46561	395.948
204.0000	-6.27735	398.675
203.8000	-6.09413	401.466
203.6000	-5.8595	404.327
203.4000	-5.65369	407.257
203.2000	-5.52531	410.257
203.0000	-5.31645	413.326
202.8000	-5.0469	416.463
202.6000	-4.78421	419.674
202.4000	-4.48865	422.962
202.2000	-4.23725	426.315
202.0000	-3.89248	429.741
201.8000	-3.53422	433.24
201.6000	-3.17751	436.811
201.4000	-2.76724	440.462
201.2000	-2.4034	444.19
201.0000	-2.0151	447.996
200.8000	-1.62283	451.875
200.6000	-1.25051	455.829
200.4000	-0.866129	459.863
200.2000	-0.462202	463.983
200.0000	-0.0305126	468.196
199.8000	0.393041	472.498
199.6000	0.920519	476.895
199.4000	1.4034	481.389
199.2000	1.67819	485.981
199.0000	1.94186	490.676
198.8000	2.37365	495.475
198.6000	2.73909	500.381
198.4000	3.20762	505.396
198.2000	3.63455	510.531
198.0000	4.04118	515.795
197.8000	4.50825	521.187
197.6000	5.03554	526.708
197.4000	5.27595	532.35
197.2000	5.58544	538.12
197.0000	5.98557	544.047
196.8000	6.31621	550.129
196.6000	6.76497	556.382
196.4000	7.44693	562.804
196.2000	8.02358	569.426
196.0000	8.26963	576.253
195.8000	8.32968	583.291
195.6000	8.47924	590.552
195.4000	8.79149	598.036
195.2000	8.78265	605.763
195.0000	8.97308	613.753
