TITLE	PE29_GEF_Assay_Scan
DATA TYPE	
ORIGIN	JASCO
OWNER	
DATE	18/09/13
TIME	16:07:37
SPECTROMETER/DATA SYSTEM	JASCO Corp., J-715, Rev. 1.00
RESOLUTION	
DELTAX	-0.2
XUNITS	NANOMETERS
YUNITS	CD[mdeg]
Y2UNITS	HT[V]
FIRSTX	280.0000
LASTX	195.0000
NPOINTS	426
FIRSTY	-0.63026
MAXY	6.92449
MINY	-10.15248
XYDATA
280.0000	-0.630259	238.455
279.8000	-0.632459	238.466
279.6000	-0.626545	238.484
279.4000	-0.621936	238.509
279.2000	-0.631355	238.541
279.0000	-0.6242	238.581
278.8000	-0.620852	238.626
278.6000	-0.623474	238.679
278.4000	-0.621237	238.738
278.2000	-0.625105	238.807
278.0000	-0.62931	238.883
277.8000	-0.629187	238.968
277.6000	-0.636138	239.06
277.4000	-0.639804	239.16
277.2000	-0.629388	239.263
277.0000	-0.634167	239.367
276.8000	-0.631711	239.472
276.6000	-0.625707	239.579
276.4000	-0.622267	239.683
276.2000	-0.635497	239.789
276.0000	-0.637709	239.895
275.8000	-0.634781	240.003
275.6000	-0.626023	240.11
275.4000	-0.633415	240.215
275.2000	-0.631109	240.322
275.0000	-0.631642	240.429
274.8000	-0.620994	240.535
274.6000	-0.621836	240.635
274.4000	-0.621621	240.737
274.2000	-0.613602	240.839
274.0000	-0.618279	240.942
273.8000	-0.624478	241.045
273.6000	-0.615818	241.152
273.4000	-0.604754	241.258
273.2000	-0.604469	241.364
273.0000	-0.604241	241.47
272.8000	-0.593072	241.58
272.6000	-0.58451	241.692
272.4000	-0.572603	241.803
272.2000	-0.57179	241.919
272.0000	-0.563832	242.036
271.8000	-0.556588	242.156
271.6000	-0.563208	242.275
271.4000	-0.559479	242.397
271.2000	-0.542435	242.52
271.0000	-0.538403	242.643
270.8000	-0.539452	242.765
270.6000	-0.5379	242.886
270.4000	-0.525567	243.006
270.2000	-0.537381	243.125
270.0000	-0.541571	243.242
269.8000	-0.549527	243.359
269.6000	-0.55133	243.472
269.4000	-0.54361	243.586
269.2000	-0.537934	243.697
269.0000	-0.542394	243.809
268.8000	-0.536397	243.918
268.6000	-0.538237	244.026
268.4000	-0.540331	244.132
268.2000	-0.531599	244.236
268.0000	-0.533623	244.342
267.8000	-0.553574	244.447
267.6000	-0.553361	244.553
267.4000	-0.53661	244.659
267.2000	-0.53373	244.765
267.0000	-0.523137	244.869
266.8000	-0.531224	244.968
266.6000	-0.52602	245.072
266.4000	-0.5351	245.174
266.2000	-0.530135	245.273
266.0000	-0.516605	245.371
265.8000	-0.516797	245.47
265.6000	-0.51653	245.569
265.4000	-0.519282	245.668
265.2000	-0.51406	245.765
265.0000	-0.487125	245.859
264.8000	-0.485781	245.954
264.6000	-0.500694	246.045
264.4000	-0.493819	246.138
264.2000	-0.482583	246.233
264.0000	-0.47093	246.326
263.8000	-0.462431	246.42
263.6000	-0.449446	246.51
263.4000	-0.452339	246.602
263.2000	-0.451178	246.695
263.0000	-0.45504	246.786
262.8000	-0.458252	246.874
262.6000	-0.441332	246.962
262.4000	-0.45626	247.054
262.2000	-0.472279	247.149
262.0000	-0.467734	247.247
261.8000	-0.455669	247.347
261.6000	-0.454837	247.445
261.4000	-0.462013	247.543
261.2000	-0.474455	247.642
261.0000	-0.477776	247.743
260.8000	-0.482026	247.846
260.6000	-0.479063	247.951
260.4000	-0.483747	248.057
260.2000	-0.477182	248.167
260.0000	-0.481748	248.279
259.8000	-0.4888	248.39
259.6000	-0.482592	248.501
259.4000	-0.468545	248.608
259.2000	-0.463597	248.715
259.0000	-0.479659	248.821
258.8000	-0.487588	248.925
258.6000	-0.491472	249.031
258.4000	-0.495655	249.139
258.2000	-0.510881	249.246
258.0000	-0.521606	249.356
257.8000	-0.52145	249.463
257.6000	-0.523544	249.571
257.4000	-0.515954	249.679
257.2000	-0.516239	249.789
257.0000	-0.525219	249.898
256.8000	-0.531147	250.01
256.6000	-0.556047	250.122
256.4000	-0.557446	250.236
256.2000	-0.554585	250.351
256.0000	-0.544116	250.469
255.8000	-0.556171	250.586
255.6000	-0.551848	250.705
255.4000	-0.537678	250.824
255.2000	-0.531625	250.944
255.0000	-0.540581	251.066
254.8000	-0.55188	251.187
254.6000	-0.554408	251.305
254.4000	-0.545024	251.425
254.2000	-0.544779	251.546
254.0000	-0.541719	251.666
253.8000	-0.515795	251.787
253.6000	-0.510916	251.909
253.4000	-0.523957	252.033
253.2000	-0.523552	252.157
253.0000	-0.509432	252.281
252.8000	-0.525955	252.405
252.6000	-0.539837	252.526
252.4000	-0.563024	252.645
252.2000	-0.567463	252.763
252.0000	-0.57118	252.882
251.8000	-0.582608	253.003
251.6000	-0.5894	253.122
251.4000	-0.599624	253.239
251.2000	-0.607663	253.359
251.0000	-0.626984	253.477
250.8000	-0.639326	253.593
250.6000	-0.635397	253.71
250.4000	-0.636083	253.825
250.2000	-0.63878	253.941
250.0000	-0.639617	254.057
249.8000	-0.634778	254.173
249.6000	-0.633399	254.289
249.4000	-0.637162	254.407
249.2000	-0.649707	254.524
249.0000	-0.655868	254.644
248.8000	-0.650939	254.765
248.6000	-0.662113	254.889
248.4000	-0.6676	255.015
248.2000	-0.681422	255.143
248.0000	-0.691576	255.271
247.8000	-0.715244	255.4
247.6000	-0.725543	255.531
247.4000	-0.751007	255.665
247.2000	-0.762825	255.802
247.0000	-0.773287	255.94
246.8000	-0.775297	256.082
246.6000	-0.783236	256.226
246.4000	-0.787524	256.373
246.2000	-0.813307	256.521
246.0000	-0.837165	256.671
245.8000	-0.850318	256.82
245.6000	-0.866025	256.971
245.4000	-0.881905	257.123
245.2000	-0.903819	257.279
245.0000	-0.918488	257.438
244.8000	-0.942214	257.597
244.6000	-0.942886	257.76
244.4000	-0.954325	257.924
244.2000	-0.960389	258.092
244.0000	-1.00929	258.264
243.8000	-1.0335	258.439
243.6000	-1.05461	258.616
243.4000	-1.07399	258.798
243.2000	-1.10263	258.986
243.0000	-1.13036	259.178
242.8000	-1.14914	259.374
242.6000	-1.15403	259.572
242.4000	-1.18912	259.772
242.2000	-1.2102	259.979
242.0000	-1.23008	260.189
241.8000	-1.27327	260.406
241.6000	-1.31224	260.628
241.4000	-1.35591	260.853
241.2000	-1.38116	261.08
241.0000	-1.41364	261.312
240.8000	-1.46011	261.548
240.6000	-1.50272	261.786
240.4000	-1.52959	262.027
240.2000	-1.57811	262.272
240.0000	-1.63577	262.523
239.8000	-1.6993	262.781
239.6000	-1.74595	263.044
239.4000	-1.80691	263.312
239.2000	-1.87712	263.584
239.0000	-1.93038	263.858
238.8000	-1.98808	264.137
238.6000	-2.04197	264.419
238.4000	-2.10364	264.708
238.2000	-2.16786	264.999
238.0000	-2.23079	265.295
237.8000	-2.28645	265.592
237.6000	-2.35806	265.897
237.4000	-2.42273	266.205
237.2000	-2.48427	266.516
237.0000	-2.55526	266.83
236.8000	-2.62422	267.146
236.6000	-2.7011	267.468
236.4000	-2.77577	267.796
236.2000	-2.84977	268.128
236.0000	-2.91842	268.464
235.8000	-3.00191	268.805
235.6000	-3.08793	269.151
235.4000	-3.18912	269.5
235.2000	-3.28971	269.856
235.0000	-3.37198	270.217
234.8000	-3.45837	270.579
234.6000	-3.54281	270.948
234.4000	-3.64924	271.317
234.2000	-3.73791	271.695
234.0000	-3.81588	272.076
233.8000	-3.90592	272.46
233.6000	-4.00534	272.849
233.4000	-4.11079	273.24
233.2000	-4.20235	273.634
233.0000	-4.28788	274.031
232.8000	-4.37664	274.428
232.6000	-4.4489	274.829
232.4000	-4.52519	275.23
232.2000	-4.62298	275.631
232.0000	-4.70655	276.037
231.8000	-4.79796	276.445
231.6000	-4.87692	276.855
231.4000	-4.97152	277.263
231.2000	-5.05664	277.674
231.0000	-5.13221	278.086
230.8000	-5.23315	278.502
230.6000	-5.32797	278.922
230.4000	-5.44431	279.346
230.2000	-5.54273	279.774
230.0000	-5.61087	280.205
229.8000	-5.70152	280.638
229.6000	-5.79642	281.075
229.4000	-5.88018	281.513
229.2000	-5.97421	281.954
229.0000	-6.05145	282.395
228.8000	-6.12216	282.84
228.6000	-6.22303	283.286
228.4000	-6.28664	283.734
228.2000	-6.35865	284.18
228.0000	-6.43721	284.623
227.8000	-6.51423	285.065
227.6000	-6.55247	285.509
227.4000	-6.6182	285.956
227.2000	-6.67336	286.407
227.0000	-6.75521	286.859
226.8000	-6.8331	287.315
226.6000	-6.89439	287.778
226.4000	-6.96154	288.243
226.2000	-7.03469	288.714
226.0000	-7.10028	289.191
225.8000	-7.17237	289.674
225.6000	-7.24043	290.165
225.4000	-7.3006	290.661
225.2000	-7.34237	291.164
225.0000	-7.38388	291.673
224.8000	-7.45029	292.188
224.6000	-7.50251	292.707
224.4000	-7.54956	293.233
224.2000	-7.58725	293.766
224.0000	-7.63878	294.305
223.8000	-7.67333	294.851
223.6000	-7.70049	295.402
223.4000	-7.73827	295.956
223.2000	-7.78874	296.517
223.0000	-7.80318	297.083
222.8000	-7.84748	297.655
222.6000	-7.85765	298.232
222.4000	-7.88259	298.817
222.2000	-7.92171	299.408
222.0000	-7.94532	300.005
221.8000	-7.98779	300.607
221.6000	-8.01921	301.212
221.4000	-8.03559	301.823
221.2000	-8.05199	302.44
221.0000	-8.08049	303.064
220.8000	-8.11237	303.694
220.6000	-8.14441	304.331
220.4000	-8.16801	304.977
220.2000	-8.1934	305.631
220.0000	-8.21151	306.292
219.8000	-8.27658	306.96
219.6000	-8.29959	307.634
219.4000	-8.34839	308.322
219.2000	-8.36952	309.022
219.0000	-8.39421	309.733
218.8000	-8.41936	310.452
218.6000	-8.43435	311.181
218.4000	-8.44681	311.92
218.2000	-8.47477	312.672
218.0000	-8.50029	313.434
217.8000	-8.49619	314.204
217.6000	-8.51704	314.985
217.4000	-8.52935	315.774
217.2000	-8.56564	316.574
217.0000	-8.55109	317.386
216.8000	-8.54269	318.206
216.6000	-8.52725	319.032
216.4000	-8.52809	319.863
216.2000	-8.53894	320.704
216.0000	-8.54926	321.558
215.8000	-8.57777	322.425
215.6000	-8.57254	323.301
215.4000	-8.60186	324.189
215.2000	-8.63428	325.094
215.0000	-8.6488	326.016
214.8000	-8.69447	326.957
214.6000	-8.74343	327.916
214.4000	-8.74749	328.893
214.2000	-8.80472	329.891
214.0000	-8.86037	330.912
213.8000	-8.92651	331.956
213.6000	-9.00111	333.027
213.4000	-9.05286	334.121
213.2000	-9.07981	335.237
213.0000	-9.10236	336.379
212.8000	-9.18999	337.544
212.6000	-9.22671	338.732
212.4000	-9.23024	339.94
212.2000	-9.27272	341.17
212.0000	-9.31507	342.42
211.8000	-9.39052	343.694
211.6000	-9.43582	344.99
211.4000	-9.50433	346.31
211.2000	-9.55429	347.656
211.0000	-9.62274	349.029
210.8000	-9.66028	350.426
210.6000	-9.70706	351.85
210.4000	-9.82824	353.308
210.2000	-9.88474	354.794
210.0000	-9.94622	356.313
209.8000	-10.0036	357.866
209.6000	-10.0684	359.453
209.4000	-10.0952	361.076
209.2000	-10.1242	362.736
209.0000	-10.1525	364.437
208.8000	-10.1401	366.175
208.6000	-10.1397	367.95
208.4000	-10.1453	369.761
208.2000	-10.1462	371.605
208.0000	-10.0941	373.49
207.8000	-10.063	375.419
207.6000	-10.0305	377.388
207.4000	-9.96436	379.402
207.2000	-9.90124	381.458
207.0000	-9.84457	383.562
206.8000	-9.80501	385.712
206.6000	-9.76241	387.907
206.4000	-9.60403	390.149
206.2000	-9.50079	392.44
206.0000	-9.37366	394.781
205.8000	-9.27584	397.166
205.6000	-9.17127	399.602
205.4000	-9.03439	402.091
205.2000	-8.9039	404.63
205.0000	-8.77094	407.222
204.8000	-8.5895	409.869
204.6000	-8.42473	412.57
204.4000	-8.2578	415.328
204.2000	-8.06565	418.143
204.0000	-7.80553	421.024
203.8000	-7.62746	423.965
203.6000	-7.46854	426.97
203.4000	-7.20661	430.043
203.2000	-7.05175	433.193
203.0000	-6.81865	436.417
202.8000	-6.4702	439.711
202.6000	-6.22118	443.079
202.4000	-5.87102	446.525
202.2000	-5.65538	450.041
202.0000	-5.30824	453.628
201.8000	-5.05842	457.294
201.6000	-4.79296	461.04
201.4000	-4.53855	464.869
201.2000	-4.27258	468.772
201.0000	-3.87662	472.759
200.8000	-3.55291	476.835
200.6000	-3.18351	481.004
200.4000	-2.65513	485.262
200.2000	-2.18799	489.623
200.0000	-1.91402	494.093
199.8000	-1.59147	498.663
199.6000	-1.05485	503.34
199.4000	-0.495283	508.12
199.2000	0.0226603	513.002
199.0000	0.575602	517.991
198.8000	1.1484	523.09
198.6000	1.63511	528.307
198.4000	2.11979	533.65
198.2000	2.70463	539.12
198.0000	3.17129	544.71
197.8000	3.50789	550.423
197.6000	3.86544	556.265
197.4000	4.24544	562.23
197.2000	4.69125	568.328
197.0000	4.9443	574.574
196.8000	5.42387	580.974
196.6000	6.01422	587.543
196.4000	6.0756	594.282
196.2000	6.47408	601.213
196.0000	6.65737	608.349
195.8000	6.92449	615.689
195.6000	6.91224	623.239
195.4000	6.79698	631.006
195.2000	6.76851	639.007
195.0000	6.92394	647.253
