TITLE	PE3_GEF_Assay
DATA TYPE	
ORIGIN	JASCO
OWNER	
DATE	18/08/27
TIME	12:34:12
SPECTROMETER/DATA SYSTEM	JASCO Corp., J-715, Rev. 1.00
RESOLUTION	
DELTAX	-0.2
XUNITS	NANOMETERS
YUNITS	CD[mdeg]
Y2UNITS	HT[V]
FIRSTX	280.0000
LASTX	195.0000
NPOINTS	426
FIRSTY	0.39920
MAXY	8.64964
MINY	-6.77299
XYDATA
280.0000	0.399202	236.402
279.8000	0.401571	236.417
279.6000	0.414194	236.44
279.4000	0.415416	236.469
279.2000	0.419565	236.506
279.0000	0.419846	236.55
278.8000	0.424461	236.602
278.6000	0.432573	236.662
278.4000	0.440288	236.728
278.2000	0.442803	236.8
278.0000	0.436288	236.88
277.8000	0.425188	236.968
277.6000	0.429795	237.062
277.4000	0.428698	237.164
277.2000	0.4371	237.267
277.0000	0.442855	237.37
276.8000	0.440422	237.473
276.6000	0.446669	237.576
276.4000	0.440924	237.68
276.2000	0.436381	237.783
276.0000	0.432782	237.89
275.8000	0.434609	237.996
275.6000	0.440612	238.101
275.4000	0.43491	238.208
275.2000	0.430586	238.315
275.0000	0.424707	238.421
274.8000	0.418298	238.528
274.6000	0.409132	238.634
274.4000	0.403876	238.74
274.2000	0.395386	238.845
274.0000	0.391167	238.954
273.8000	0.393817	239.06
273.6000	0.392593	239.167
273.4000	0.399944	239.272
273.2000	0.389962	239.378
273.0000	0.380527	239.487
272.8000	0.370589	239.596
272.6000	0.374265	239.706
272.4000	0.375069	239.819
272.2000	0.387473	239.935
272.0000	0.388478	240.053
271.8000	0.382455	240.171
271.6000	0.38541	240.289
271.4000	0.403427	240.41
271.2000	0.389545	240.532
271.0000	0.393999	240.657
270.8000	0.397203	240.782
270.6000	0.389843	240.906
270.4000	0.391178	241.027
270.2000	0.392725	241.148
270.0000	0.404464	241.269
269.8000	0.402837	241.385
269.6000	0.409537	241.499
269.4000	0.407933	241.609
269.2000	0.416494	241.719
269.0000	0.418374	241.829
268.8000	0.403704	241.936
268.6000	0.398145	242.041
268.4000	0.402577	242.141
268.2000	0.389429	242.24
268.0000	0.390803	242.342
267.8000	0.390252	242.445
267.6000	0.394546	242.548
267.4000	0.389982	242.651
267.2000	0.380914	242.755
267.0000	0.376353	242.861
266.8000	0.369295	242.963
266.6000	0.373196	243.065
266.4000	0.372405	243.167
266.2000	0.389858	243.266
266.0000	0.400435	243.368
265.8000	0.405041	243.469
265.6000	0.406407	243.57
265.4000	0.405679	243.672
265.2000	0.403591	243.768
265.0000	0.390804	243.861
264.8000	0.38832	243.954
264.6000	0.390725	244.042
264.4000	0.394058	244.13
264.2000	0.395246	244.219
264.0000	0.392484	244.308
263.8000	0.392452	244.398
263.6000	0.393176	244.482
263.4000	0.377383	244.571
263.2000	0.364996	244.657
263.0000	0.352559	244.746
262.8000	0.352279	244.834
262.6000	0.360297	244.922
262.4000	0.35878	245.012
262.2000	0.364614	245.106
262.0000	0.354873	245.203
261.8000	0.352331	245.302
261.6000	0.355165	245.403
261.4000	0.365225	245.505
261.2000	0.354493	245.609
261.0000	0.34658	245.714
260.8000	0.349487	245.822
260.6000	0.352728	245.93
260.4000	0.36858	246.037
260.2000	0.368265	246.147
260.0000	0.36393	246.259
259.8000	0.360229	246.372
259.6000	0.358199	246.487
259.4000	0.370082	246.597
259.2000	0.373583	246.709
259.0000	0.363737	246.82
258.8000	0.351264	246.929
258.6000	0.334956	247.04
258.4000	0.329389	247.15
258.2000	0.332691	247.26
258.0000	0.328702	247.37
257.8000	0.318881	247.481
257.6000	0.324917	247.595
257.4000	0.32448	247.705
257.2000	0.329691	247.817
257.0000	0.330441	247.926
256.8000	0.336131	248.035
256.6000	0.330188	248.147
256.4000	0.326758	248.26
256.2000	0.323088	248.374
256.0000	0.338306	248.49
255.8000	0.339564	248.606
255.6000	0.347311	248.723
255.4000	0.33858	248.841
255.2000	0.340352	248.959
255.0000	0.349215	249.077
254.8000	0.341484	249.195
254.6000	0.349668	249.314
254.4000	0.349351	249.438
254.2000	0.367789	249.561
254.0000	0.361926	249.684
253.8000	0.359113	249.806
253.6000	0.357779	249.927
253.4000	0.361705	250.051
253.2000	0.368929	250.172
253.0000	0.37374	250.292
252.8000	0.3644	250.412
252.6000	0.354218	250.533
252.4000	0.351247	250.652
252.2000	0.335044	250.772
252.0000	0.340464	250.892
251.8000	0.341314	251.012
251.6000	0.321319	251.126
251.4000	0.308897	251.241
251.2000	0.319284	251.359
251.0000	0.313437	251.474
250.8000	0.311831	251.588
250.6000	0.302758	251.7
250.4000	0.297028	251.812
250.2000	0.301215	251.921
250.0000	0.290547	252.032
249.8000	0.294679	252.143
249.6000	0.29617	252.256
249.4000	0.302417	252.366
249.2000	0.293149	252.478
249.0000	0.292827	252.592
248.8000	0.294212	252.709
248.6000	0.271071	252.828
248.4000	0.257816	252.948
248.2000	0.26409	253.071
248.0000	0.244917	253.198
247.8000	0.236734	253.33
247.6000	0.221917	253.464
247.4000	0.213678	253.602
247.2000	0.212071	253.738
247.0000	0.205012	253.877
246.8000	0.201324	254.019
246.6000	0.190269	254.162
246.4000	0.180031	254.308
246.2000	0.154862	254.455
246.0000	0.139731	254.604
245.8000	0.125629	254.754
245.6000	0.107769	254.904
245.4000	0.094814	255.055
245.2000	0.0759528	255.205
245.0000	0.0673027	255.356
244.8000	0.0467246	255.511
244.6000	0.0343978	255.669
244.4000	0.026675	255.833
244.2000	0.00202459	255.997
244.0000	-0.01112	256.164
243.8000	-0.0360099	256.336
243.6000	-0.0500191	256.508
243.4000	-0.0574064	256.685
243.2000	-0.0843703	256.865
243.0000	-0.104372	257.05
242.8000	-0.133301	257.238
242.6000	-0.153876	257.428
242.4000	-0.175453	257.624
242.2000	-0.176078	257.823
242.0000	-0.223388	258.024
241.8000	-0.248553	258.228
241.6000	-0.282567	258.436
241.4000	-0.31008	258.649
241.2000	-0.339549	258.864
241.0000	-0.366497	259.083
240.8000	-0.397027	259.306
240.6000	-0.440931	259.532
240.4000	-0.471053	259.761
240.2000	-0.501005	259.993
240.0000	-0.508377	260.23
239.8000	-0.547599	260.471
239.6000	-0.603992	260.719
239.4000	-0.638432	260.97
239.2000	-0.661214	261.226
239.0000	-0.724727	261.485
238.8000	-0.77982	261.749
238.6000	-0.834335	262.015
238.4000	-0.893662	262.286
238.2000	-0.953977	262.561
238.0000	-1.00875	262.839
237.8000	-1.0583	263.121
237.6000	-1.12882	263.409
237.4000	-1.18965	263.699
237.2000	-1.23228	263.995
237.0000	-1.28372	264.295
236.8000	-1.32988	264.599
236.6000	-1.40383	264.906
236.4000	-1.46787	265.216
236.2000	-1.51663	265.532
236.0000	-1.57034	265.854
235.8000	-1.61579	266.179
235.6000	-1.68745	266.511
235.4000	-1.7417	266.843
235.2000	-1.81349	267.181
235.0000	-1.88534	267.521
234.8000	-1.95352	267.865
234.6000	-2.04544	268.214
234.4000	-2.12729	268.565
234.2000	-2.18334	268.92
234.0000	-2.2601	269.279
233.8000	-2.31287	269.641
233.6000	-2.38582	270.006
233.4000	-2.47099	270.371
233.2000	-2.54599	270.736
233.0000	-2.64258	271.103
232.8000	-2.71483	271.47
232.6000	-2.7863	271.841
232.4000	-2.8592	272.209
232.2000	-2.94663	272.577
232.0000	-3.00591	272.945
231.8000	-3.05802	273.314
231.6000	-3.16465	273.681
231.4000	-3.25578	274.049
231.2000	-3.33756	274.418
231.0000	-3.41499	274.787
230.8000	-3.48816	275.158
230.6000	-3.57835	275.531
230.4000	-3.66492	275.904
230.2000	-3.7227	276.279
230.0000	-3.79253	276.654
229.8000	-3.84742	277.03
229.6000	-3.91334	277.411
229.4000	-3.9683	277.792
229.2000	-4.06221	278.173
229.0000	-4.13853	278.554
228.8000	-4.17939	278.938
228.6000	-4.22634	279.32
228.4000	-4.2975	279.702
228.2000	-4.35375	280.082
228.0000	-4.40417	280.46
227.8000	-4.46427	280.835
227.6000	-4.5043	281.209
227.4000	-4.55914	281.585
227.2000	-4.61772	281.96
227.0000	-4.69254	282.334
226.8000	-4.75174	282.708
226.6000	-4.80534	283.083
226.4000	-4.85642	283.459
226.2000	-4.91074	283.839
226.0000	-4.96728	284.213
225.8000	-5.02956	284.588
225.6000	-5.04953	284.967
225.4000	-5.08375	285.346
225.2000	-5.10761	285.729
225.0000	-5.13331	286.113
224.8000	-5.18911	286.499
224.6000	-5.23306	286.885
224.4000	-5.25315	287.273
224.2000	-5.27125	287.665
224.0000	-5.27917	288.058
223.8000	-5.2753	288.452
223.6000	-5.28988	288.847
223.4000	-5.29142	289.246
223.2000	-5.30944	289.649
223.0000	-5.31785	290.055
222.8000	-5.34903	290.461
222.6000	-5.40098	290.87
222.4000	-5.44277	291.284
222.2000	-5.44895	291.698
222.0000	-5.44515	292.116
221.8000	-5.46013	292.537
221.6000	-5.51204	292.961
221.4000	-5.51636	293.389
221.2000	-5.53561	293.818
221.0000	-5.56149	294.253
220.8000	-5.58027	294.689
220.6000	-5.58353	295.127
220.4000	-5.59823	295.567
220.2000	-5.62323	296.013
220.0000	-5.61584	296.462
219.8000	-5.60415	296.918
219.6000	-5.6001	297.38
219.4000	-5.60205	297.849
219.2000	-5.60019	298.327
219.0000	-5.61445	298.811
218.8000	-5.5897	299.3
218.6000	-5.61237	299.798
218.4000	-5.62765	300.302
218.2000	-5.62627	300.813
218.0000	-5.64269	301.332
217.8000	-5.65677	301.859
217.6000	-5.66392	302.394
217.4000	-5.65797	302.936
217.2000	-5.69576	303.488
217.0000	-5.71552	304.049
216.8000	-5.70414	304.619
216.6000	-5.72808	305.195
216.4000	-5.73658	305.779
216.2000	-5.74921	306.374
216.0000	-5.74756	306.978
215.8000	-5.74672	307.593
215.6000	-5.76009	308.22
215.4000	-5.76552	308.863
215.2000	-5.76691	309.522
215.0000	-5.79024	310.197
214.8000	-5.7837	310.889
214.6000	-5.7874	311.597
214.4000	-5.78468	312.321
214.2000	-5.77465	313.065
214.0000	-5.80243	313.828
213.8000	-5.81007	314.612
213.6000	-5.85282	315.416
213.4000	-5.88101	316.243
213.2000	-5.90776	317.095
213.0000	-5.9764	317.966
212.8000	-6.0026	318.858
212.6000	-6.03208	319.77
212.4000	-6.0754	320.703
212.2000	-6.11197	321.659
212.0000	-6.16083	322.64
211.8000	-6.20748	323.644
211.6000	-6.22942	324.671
211.4000	-6.26836	325.724
211.2000	-6.32027	326.804
211.0000	-6.34475	327.91
210.8000	-6.34457	329.044
210.6000	-6.38682	330.204
210.4000	-6.40091	331.393
210.2000	-6.43191	332.616
210.0000	-6.48131	333.873
209.8000	-6.51914	335.169
209.6000	-6.55554	336.502
209.4000	-6.59913	337.87
209.2000	-6.67096	339.273
209.0000	-6.67546	340.711
208.8000	-6.71307	342.185
208.6000	-6.71833	343.693
208.4000	-6.77299	345.235
208.2000	-6.77054	346.815
208.0000	-6.76521	348.433
207.8000	-6.76851	350.095
207.6000	-6.75547	351.796
207.4000	-6.66395	353.539
207.2000	-6.6304	355.323
207.0000	-6.52897	357.143
206.8000	-6.47036	359.006
206.6000	-6.36007	360.914
206.4000	-6.26677	362.87
206.2000	-6.21422	364.875
206.0000	-6.131	366.93
205.8000	-6.01375	369.034
205.6000	-5.882	371.19
205.4000	-5.77888	373.396
205.2000	-5.6747	375.652
205.0000	-5.4889	377.959
204.8000	-5.36479	380.32
204.6000	-5.24431	382.732
204.4000	-5.13265	385.199
204.2000	-4.95444	387.719
204.0000	-4.74797	390.304
203.8000	-4.61227	392.947
203.6000	-4.44104	395.652
203.4000	-4.22579	398.417
203.2000	-4.01698	401.248
203.0000	-3.82405	404.148
202.8000	-3.62853	407.111
202.6000	-3.3867	410.146
202.4000	-3.16456	413.253
202.2000	-2.96197	416.427
202.0000	-2.72114	419.666
201.8000	-2.38353	422.973
201.6000	-2.08467	426.348
201.4000	-1.88824	429.794
201.2000	-1.5299	433.305
201.0000	-1.23728	436.888
200.8000	-0.902992	440.549
200.6000	-0.532478	444.29
200.4000	-0.182703	448.108
200.2000	0.260275	452.005
200.0000	0.646273	455.983
199.8000	1.13997	460.04
199.6000	1.50519	464.176
199.4000	1.85911	468.394
199.2000	2.18305	472.695
199.0000	2.46995	477.092
198.8000	2.82427	481.591
198.6000	3.10966	486.191
198.4000	3.43957	490.895
198.2000	3.86961	495.703
198.0000	4.1779	500.624
197.8000	4.56541	505.66
197.6000	4.89365	510.802
197.4000	5.28253	516.052
197.2000	5.58745	521.417
197.0000	5.89855	526.919
196.8000	6.24411	532.568
196.6000	6.57763	538.372
196.4000	6.85995	544.328
196.2000	7.10025	550.45
196.0000	7.44715	556.761
195.8000	7.68835	563.271
195.6000	8.06928	569.985
195.4000	8.15961	576.91
195.2000	8.52135	584.044
195.0000	8.64964	591.419
