TITLE	PE11_GEF_Assay_Scan
DATA TYPE	
ORIGIN	JASCO
OWNER	
DATE	18/09/04
TIME	15:41:42
SPECTROMETER/DATA SYSTEM	JASCO Corp., J-715, Rev. 1.00
RESOLUTION	
DELTAX	-0.2
XUNITS	NANOMETERS
YUNITS	CD[mdeg]
Y2UNITS	HT[V]
FIRSTX	280.0000
LASTX	195.0000
NPOINTS	426
FIRSTY	1.18385
MAXY	9.87827
MINY	-6.29847
XYDATA
280.0000	1.18385	236.209
279.8000	1.18218	236.221
279.6000	1.20323	236.242
279.4000	1.20488	236.269
279.2000	1.19731	236.304
279.0000	1.20704	236.347
278.8000	1.20705	236.397
278.6000	1.2048	236.454
278.4000	1.19713	236.517
278.2000	1.20012	236.588
278.0000	1.1954	236.666
277.8000	1.19267	236.751
277.6000	1.18227	236.843
277.4000	1.19024	236.941
277.2000	1.20187	237.041
277.0000	1.20121	237.142
276.8000	1.19671	237.245
276.6000	1.19651	237.348
276.4000	1.18547	237.45
276.2000	1.18356	237.55
276.0000	1.1889	237.652
275.8000	1.18917	237.755
275.6000	1.20466	237.861
275.4000	1.20377	237.967
275.2000	1.20118	238.074
275.0000	1.19686	238.18
274.8000	1.21382	238.287
274.6000	1.21113	238.391
274.4000	1.19387	238.495
274.2000	1.17702	238.598
274.0000	1.17849	238.702
273.8000	1.17294	238.808
273.6000	1.16873	238.918
273.4000	1.15945	239.027
273.2000	1.14802	239.134
273.0000	1.14031	239.241
272.8000	1.12992	239.348
272.6000	1.12151	239.457
272.4000	1.12405	239.567
272.2000	1.13434	239.681
272.0000	1.1195	239.796
271.8000	1.12021	239.914
271.6000	1.12322	240.034
271.4000	1.12028	240.156
271.2000	1.1174	240.278
271.0000	1.10924	240.398
270.8000	1.11194	240.517
270.6000	1.09141	240.636
270.4000	1.08188	240.756
270.2000	1.07704	240.874
270.0000	1.07892	240.991
269.8000	1.06803	241.108
269.6000	1.0711	241.221
269.4000	1.06095	241.332
269.2000	1.06142	241.441
269.0000	1.05074	241.551
268.8000	1.0472	241.656
268.6000	1.04946	241.756
268.4000	1.03609	241.858
268.2000	1.03477	241.957
268.0000	1.02372	242.057
267.8000	1.02735	242.159
267.6000	1.0333	242.26
267.4000	1.02427	242.363
267.2000	1.01822	242.465
267.0000	1.01541	242.567
266.8000	1.00952	242.666
266.6000	1.00183	242.768
266.4000	0.994307	242.868
266.2000	1.01211	242.967
266.0000	0.995209	243.066
265.8000	0.992155	243.166
265.6000	0.986822	243.265
265.4000	0.984997	243.365
265.2000	0.981476	243.461
265.0000	0.981414	243.556
264.8000	0.97343	243.651
264.6000	0.9877	243.743
264.4000	0.982353	243.832
264.2000	0.97897	243.923
264.0000	0.975569	244.013
263.8000	0.967871	244.101
263.6000	0.949769	244.186
263.4000	0.944202	244.276
263.2000	0.951458	244.366
263.0000	0.963348	244.455
262.8000	0.9681	244.542
262.6000	0.965636	244.629
262.4000	0.976285	244.72
262.2000	0.966729	244.811
262.0000	0.965336	244.903
261.8000	0.960364	244.996
261.6000	0.956523	245.091
261.4000	0.963825	245.187
261.2000	0.969012	245.287
261.0000	0.96411	245.39
260.8000	0.969519	245.495
260.6000	0.983869	245.598
260.4000	0.977166	245.7
260.2000	0.979756	245.806
260.0000	0.983302	245.915
259.8000	0.984878	246.022
259.6000	0.978635	246.132
259.4000	0.983713	246.239
259.2000	0.986743	246.349
259.0000	0.996346	246.456
258.8000	0.994176	246.562
258.6000	0.986395	246.666
258.4000	0.988907	246.771
258.2000	1.00434	246.875
258.0000	0.997666	246.98
257.8000	0.976834	247.087
257.6000	0.981838	247.194
257.4000	0.988889	247.3
257.2000	0.978843	247.407
257.0000	0.983141	247.515
256.8000	0.994658	247.622
256.6000	0.998521	247.733
256.4000	1.00222	247.844
256.2000	0.999927	247.957
256.0000	1.01471	248.073
255.8000	1.04494	248.191
255.6000	1.03416	248.308
255.4000	1.03618	248.426
255.2000	1.0542	248.543
255.0000	1.06167	248.662
254.8000	1.05411	248.782
254.6000	1.05598	248.9
254.4000	1.0521	249.018
254.2000	1.04201	249.137
254.0000	1.05942	249.257
253.8000	1.06205	249.376
253.6000	1.06475	249.495
253.4000	1.06729	249.615
253.2000	1.04836	249.735
253.0000	1.03948	249.851
252.8000	1.04527	249.967
252.6000	1.03507	250.083
252.4000	1.03153	250.198
252.2000	1.04315	250.313
252.0000	1.03732	250.43
251.8000	1.03654	250.546
251.6000	1.03978	250.662
251.4000	1.04605	250.777
251.2000	1.03567	250.892
251.0000	1.03482	251.006
250.8000	1.02547	251.117
250.6000	1.02524	251.226
250.4000	1.01718	251.335
250.2000	1.0109	251.445
250.0000	1.01357	251.557
249.8000	1.01042	251.667
249.6000	1.00276	251.778
249.4000	0.99149	251.887
249.2000	0.996952	251.998
249.0000	1.00649	252.11
248.8000	0.998725	252.225
248.6000	0.986891	252.34
248.4000	0.966686	252.455
248.2000	0.956597	252.574
248.0000	0.953825	252.697
247.8000	0.948074	252.824
247.6000	0.935653	252.952
247.4000	0.942752	253.082
247.2000	0.941214	253.213
247.0000	0.93523	253.348
246.8000	0.939095	253.486
246.6000	0.92619	253.624
246.4000	0.902711	253.766
246.2000	0.882954	253.909
246.0000	0.865497	254.051
245.8000	0.859992	254.197
245.6000	0.8635	254.345
245.4000	0.846001	254.492
245.2000	0.83784	254.643
245.0000	0.830518	254.794
244.8000	0.814445	254.948
244.6000	0.785563	255.105
244.4000	0.755476	255.263
244.2000	0.738083	255.423
244.0000	0.716077	255.587
243.8000	0.703248	255.755
243.6000	0.694574	255.924
243.4000	0.683389	256.097
243.2000	0.649678	256.275
243.0000	0.625942	256.456
242.8000	0.60591	256.641
242.6000	0.581622	256.829
242.4000	0.55587	257.02
242.2000	0.539711	257.219
242.0000	0.520648	257.418
241.8000	0.484192	257.622
241.6000	0.460683	257.83
241.4000	0.430785	258.043
241.2000	0.404122	258.258
241.0000	0.364464	258.476
240.8000	0.322926	258.699
240.6000	0.299202	258.924
240.4000	0.26342	259.154
240.2000	0.227782	259.388
240.0000	0.185706	259.625
239.8000	0.129643	259.866
239.6000	0.0854559	260.111
239.4000	0.0291505	260.361
239.2000	-0.0140157	260.617
239.0000	-0.0583706	260.876
238.8000	-0.124451	261.138
238.6000	-0.177337	261.401
238.4000	-0.217215	261.669
238.2000	-0.265118	261.941
238.0000	-0.322715	262.218
237.8000	-0.385016	262.498
237.6000	-0.459739	262.781
237.4000	-0.521097	263.069
237.2000	-0.578321	263.36
237.0000	-0.638739	263.658
236.8000	-0.711395	263.96
236.6000	-0.781508	264.263
236.4000	-0.85643	264.569
236.2000	-0.916242	264.88
236.0000	-0.975163	265.197
235.8000	-1.05332	265.52
235.6000	-1.1457	265.846
235.4000	-1.22273	266.173
235.2000	-1.29443	266.508
235.0000	-1.36599	266.848
234.8000	-1.42733	267.192
234.6000	-1.48781	267.539
234.4000	-1.57845	267.888
234.2000	-1.65196	268.241
234.0000	-1.72256	268.597
233.8000	-1.77298	268.957
233.6000	-1.84856	269.322
233.4000	-1.92038	269.69
233.2000	-1.99712	270.058
233.0000	-2.08423	270.428
232.8000	-2.16331	270.799
232.6000	-2.25792	271.17
232.4000	-2.33638	271.54
232.2000	-2.41537	271.909
232.0000	-2.51351	272.28
231.8000	-2.61077	272.649
231.6000	-2.68047	273.017
231.4000	-2.75504	273.386
231.2000	-2.84982	273.759
231.0000	-2.94594	274.129
230.8000	-3.04945	274.5
230.6000	-3.13444	274.873
230.4000	-3.2366	275.247
230.2000	-3.30756	275.625
230.0000	-3.36656	276.005
229.8000	-3.4323	276.385
229.6000	-3.50538	276.766
229.4000	-3.56905	277.147
229.2000	-3.64061	277.529
229.0000	-3.69844	277.912
228.8000	-3.77757	278.295
228.6000	-3.84533	278.676
228.4000	-3.93299	279.058
228.2000	-4.00515	279.439
228.0000	-4.07541	279.818
227.8000	-4.1316	280.196
227.6000	-4.19	280.572
227.4000	-4.25773	280.948
227.2000	-4.34693	281.322
227.0000	-4.40174	281.697
226.8000	-4.48113	282.074
226.6000	-4.53069	282.453
226.4000	-4.59376	282.831
226.2000	-4.66937	283.212
226.0000	-4.7245	283.595
225.8000	-4.77921	283.979
225.6000	-4.82445	284.364
225.4000	-4.85725	284.751
225.2000	-4.89701	285.139
225.0000	-4.94718	285.528
224.8000	-4.98411	285.92
224.6000	-5.02154	286.313
224.4000	-5.05381	286.709
224.2000	-5.07062	287.106
224.0000	-5.09268	287.506
223.8000	-5.11092	287.908
223.6000	-5.13523	288.313
223.4000	-5.15799	288.718
223.2000	-5.18577	289.126
223.0000	-5.19421	289.537
222.8000	-5.20046	289.949
222.6000	-5.21348	290.366
222.4000	-5.21876	290.786
222.2000	-5.24394	291.21
222.0000	-5.26439	291.638
221.8000	-5.27773	292.068
221.6000	-5.27621	292.503
221.4000	-5.28403	292.938
221.2000	-5.3145	293.379
221.0000	-5.32391	293.825
220.8000	-5.34305	294.273
220.6000	-5.34603	294.726
220.4000	-5.36397	295.182
220.2000	-5.38813	295.645
220.0000	-5.38806	296.115
219.8000	-5.41581	296.591
219.6000	-5.41449	297.072
219.4000	-5.42093	297.562
219.2000	-5.42228	298.06
219.0000	-5.43211	298.565
218.8000	-5.44942	299.078
218.6000	-5.46684	299.599
218.4000	-5.47676	300.128
218.2000	-5.47194	300.668
218.0000	-5.4739	301.217
217.8000	-5.47655	301.774
217.6000	-5.49255	302.343
217.4000	-5.49603	302.919
217.2000	-5.49209	303.506
217.0000	-5.48511	304.103
216.8000	-5.47726	304.71
216.6000	-5.47902	305.327
216.4000	-5.4766	305.953
216.2000	-5.47602	306.59
216.0000	-5.48581	307.238
215.8000	-5.49185	307.901
215.6000	-5.47548	308.579
215.4000	-5.47287	309.272
215.2000	-5.49645	309.981
215.0000	-5.48207	310.706
214.8000	-5.46849	311.45
214.6000	-5.46307	312.214
214.4000	-5.455	312.997
214.2000	-5.47309	313.803
214.0000	-5.4782	314.63
213.8000	-5.53099	315.481
213.6000	-5.53352	316.361
213.4000	-5.57681	317.266
213.2000	-5.58233	318.2
213.0000	-5.59294	319.155
212.8000	-5.61874	320.133
212.6000	-5.63939	321.137
212.4000	-5.62612	322.166
212.2000	-5.66822	323.223
212.0000	-5.70905	324.306
211.8000	-5.78259	325.417
211.6000	-5.82987	326.556
211.4000	-5.89445	327.721
211.2000	-5.93116	328.917
211.0000	-5.94039	330.142
210.8000	-5.98907	331.398
210.6000	-6.03852	332.686
210.4000	-6.08302	334.009
210.2000	-6.13935	335.375
210.0000	-6.18237	336.779
209.8000	-6.20915	338.222
209.6000	-6.23103	339.703
209.4000	-6.28137	341.226
209.2000	-6.27572	342.79
209.0000	-6.29847	344.396
208.8000	-6.26006	346.045
208.6000	-6.26027	347.733
208.4000	-6.26412	349.466
208.2000	-6.25647	351.242
208.0000	-6.21041	353.062
207.8000	-6.15259	354.928
207.6000	-6.06193	356.839
207.4000	-6.02538	358.794
207.2000	-5.97657	360.801
207.0000	-5.91842	362.862
206.8000	-5.8526	364.974
206.6000	-5.73995	367.137
206.4000	-5.64752	369.356
206.2000	-5.53964	371.628
206.0000	-5.43936	373.956
205.8000	-5.3091	376.343
205.6000	-5.15856	378.789
205.4000	-4.97353	381.292
205.2000	-4.82385	383.852
205.0000	-4.68141	386.474
204.8000	-4.51691	389.16
204.6000	-4.37551	391.913
204.4000	-4.25016	394.726
204.2000	-4.07215	397.599
204.0000	-3.82874	400.541
203.8000	-3.66169	403.557
203.6000	-3.41519	406.644
203.4000	-3.27175	409.806
203.2000	-3.07619	413.047
203.0000	-2.79279	416.37
202.8000	-2.58903	419.77
202.6000	-2.40821	423.253
202.4000	-2.07396	426.82
202.2000	-1.75056	430.46
202.0000	-1.4777	434.176
201.8000	-1.18531	437.975
201.6000	-0.828904	441.862
201.4000	-0.450485	445.849
201.2000	-0.245068	449.913
201.0000	0.202559	454.062
200.8000	0.662751	458.305
200.6000	1.18953	462.641
200.4000	1.49565	467.067
200.2000	1.90658	471.586
200.0000	2.45473	476.213
199.8000	2.75384	480.951
199.6000	3.01041	485.805
199.4000	3.40033	490.772
199.2000	3.80736	495.854
199.0000	4.2277	501.058
198.8000	4.64698	506.373
198.6000	4.9255	511.806
198.4000	5.3541	517.373
198.2000	5.53232	523.071
198.0000	5.92368	528.908
197.8000	6.22678	534.889
197.6000	6.60993	541.012
197.4000	6.80536	547.267
197.2000	6.88601	553.664
197.0000	7.34901	560.221
196.8000	7.85324	566.947
196.6000	7.98857	573.855
196.4000	7.93186	580.945
196.2000	7.84262	588.242
196.0000	8.14575	595.763
195.8000	8.32776	603.509
195.6000	8.6313	611.487
195.4000	9.08496	619.694
195.2000	9.33588	628.139
195.0000	9.87827	636.844
