TITLE	PE15_GEF_Assay_Scan
DATA TYPE	
ORIGIN	JASCO
OWNER	
DATE	18/09/05
TIME	16:58:42
SPECTROMETER/DATA SYSTEM	JASCO Corp., J-715, Rev. 1.00
RESOLUTION	
DELTAX	-0.2
XUNITS	NANOMETERS
YUNITS	CD[mdeg]
Y2UNITS	HT[V]
FIRSTX	280.0000
LASTX	195.0000
NPOINTS	426
FIRSTY	0.12809
MAXY	8.03945
MINY	-7.79110
XYDATA
280.0000	0.128091	236.465
279.8000	0.134595	236.477
279.6000	0.132014	236.495
279.4000	0.132986	236.521
279.2000	0.13868	236.554
279.0000	0.137661	236.595
278.8000	0.149899	236.644
278.6000	0.154444	236.702
278.4000	0.150852	236.765
278.2000	0.151884	236.836
278.0000	0.144763	236.913
277.8000	0.147683	236.998
277.6000	0.144043	237.09
277.4000	0.142508	237.191
277.2000	0.144454	237.292
277.0000	0.146701	237.394
276.8000	0.160627	237.5
276.6000	0.158334	237.604
276.4000	0.160928	237.71
276.2000	0.158878	237.813
276.0000	0.153811	237.917
275.8000	0.154499	238.019
275.6000	0.150585	238.123
275.4000	0.141786	238.229
275.2000	0.146516	238.334
275.0000	0.15057	238.439
274.8000	0.154204	238.542
274.6000	0.14307	238.645
274.4000	0.138705	238.747
274.2000	0.134093	238.848
274.0000	0.119882	238.951
273.8000	0.116277	239.052
273.6000	0.113083	239.156
273.4000	0.123255	239.26
273.2000	0.125279	239.367
273.0000	0.124265	239.475
272.8000	0.127603	239.583
272.6000	0.133018	239.694
272.4000	0.133893	239.807
272.2000	0.129206	239.923
272.0000	0.123152	240.04
271.8000	0.121294	240.159
271.6000	0.121656	240.281
271.4000	0.121521	240.405
271.2000	0.126295	240.532
271.0000	0.123051	240.659
270.8000	0.112844	240.782
270.6000	0.111346	240.904
270.4000	0.113215	241.024
270.2000	0.114491	241.142
270.0000	0.118268	241.259
269.8000	0.12203	241.375
269.6000	0.109919	241.489
269.4000	0.107627	241.601
269.2000	0.114995	241.712
269.0000	0.125101	241.82
268.8000	0.12872	241.926
268.6000	0.126068	242.029
268.4000	0.120534	242.13
268.2000	0.118415	242.229
268.0000	0.117124	242.33
267.8000	0.113221	242.432
267.6000	0.101427	242.535
267.4000	0.0848947	242.636
267.2000	0.0753059	242.738
267.0000	0.0698361	242.841
266.8000	0.0796995	242.941
266.6000	0.0792809	243.042
266.4000	0.0628824	243.144
266.2000	0.057745	243.244
266.0000	0.0447345	243.341
265.8000	0.0473456	243.438
265.6000	0.0462928	243.534
265.4000	0.0427074	243.631
265.2000	0.038898	243.725
265.0000	0.0478549	243.816
264.8000	0.0568013	243.911
264.6000	0.0603652	244.001
264.4000	0.0644879	244.091
264.2000	0.067297	244.184
264.0000	0.0658135	244.273
263.8000	0.067246	244.359
263.6000	0.0740404	244.443
263.4000	0.0741787	244.532
263.2000	0.0780292	244.622
263.0000	0.0841699	244.715
262.8000	0.0863461	244.804
262.6000	0.0904465	244.896
262.4000	0.0907588	244.987
262.2000	0.0840964	245.082
262.0000	0.0849771	245.177
261.8000	0.102589	245.273
261.6000	0.0960765	245.369
261.4000	0.0939479	245.466
261.2000	0.0868945	245.566
261.0000	0.093503	245.668
260.8000	0.0968881	245.774
260.6000	0.0898943	245.877
260.4000	0.0860009	245.983
260.2000	0.0811892	246.091
260.0000	0.0783305	246.2
259.8000	0.0833077	246.309
259.6000	0.0918007	246.42
259.4000	0.0914221	246.527
259.2000	0.0946155	246.638
259.0000	0.0884733	246.749
258.8000	0.0866718	246.857
258.6000	0.0755167	246.966
258.4000	0.0925803	247.074
258.2000	0.0873809	247.18
258.0000	0.0868282	247.289
257.8000	0.0988503	247.398
257.6000	0.0950212	247.505
257.4000	0.0941777	247.613
257.2000	0.0783958	247.723
257.0000	0.0634918	247.834
256.8000	0.070559	247.943
256.6000	0.0591865	248.053
256.4000	0.0676742	248.163
256.2000	0.0812988	248.274
256.0000	0.0897007	248.389
255.8000	0.0873008	248.503
255.6000	0.074894	248.619
255.4000	0.0785828	248.736
255.2000	0.0640717	248.853
255.0000	0.0627179	248.971
254.8000	0.0699306	249.09
254.6000	0.0725393	249.208
254.4000	0.0897546	249.327
254.2000	0.106583	249.447
254.0000	0.0962391	249.567
253.8000	0.106708	249.685
253.6000	0.0853	249.804
253.4000	0.0871477	249.923
253.2000	0.0715833	250.043
253.0000	0.0668159	250.164
252.8000	0.0776649	250.284
252.6000	0.0743637	250.401
252.4000	0.0717611	250.518
252.2000	0.0664635	250.636
252.0000	0.0588479	250.753
251.8000	0.0603151	250.868
251.6000	0.0404534	250.981
251.4000	0.0284038	251.095
251.2000	0.0155325	251.211
251.0000	0.0153723	251.327
250.8000	0.00935984	251.442
250.6000	-0.0062089	251.555
250.4000	-0.00155163	251.669
250.2000	-0.00374556	251.78
250.0000	-0.0143242	251.893
249.8000	-0.010572	252.004
249.6000	-0.00808239	252.116
249.4000	-0.00547361	252.227
249.2000	-0.0132365	252.339
249.0000	-0.0145855	252.452
248.8000	-0.00993204	252.57
248.6000	-0.00638247	252.689
248.4000	-0.00559473	252.809
248.2000	-0.0082202	252.93
248.0000	0.00200653	253.053
247.8000	-0.00515223	253.18
247.6000	0.000835419	253.309
247.4000	-0.00377846	253.442
247.2000	-0.0117254	253.576
247.0000	-0.0259361	253.712
246.8000	-0.0502934	253.849
246.6000	-0.0600047	253.988
246.4000	-0.0688987	254.131
246.2000	-0.0803361	254.273
246.0000	-0.0933256	254.416
245.8000	-0.102159	254.561
245.6000	-0.10839	254.706
245.4000	-0.124568	254.854
245.2000	-0.151765	255.005
245.0000	-0.161382	255.156
244.8000	-0.177468	255.308
244.6000	-0.176188	255.464
244.4000	-0.206682	255.622
244.2000	-0.218331	255.782
244.0000	-0.230869	255.947
243.8000	-0.249532	256.116
243.6000	-0.258949	256.288
243.4000	-0.288789	256.464
243.2000	-0.315679	256.642
243.0000	-0.349123	256.826
242.8000	-0.386957	257.011
242.6000	-0.413805	257.2
242.4000	-0.43018	257.393
242.2000	-0.464722	257.589
242.0000	-0.492433	257.789
241.8000	-0.513259	257.991
241.6000	-0.528926	258.199
241.4000	-0.5505	258.409
241.2000	-0.582376	258.622
241.0000	-0.626184	258.841
240.8000	-0.659991	259.061
240.6000	-0.690425	259.284
240.4000	-0.7181	259.512
240.2000	-0.751644	259.744
240.0000	-0.789175	259.981
239.8000	-0.833992	260.223
239.6000	-0.884457	260.468
239.4000	-0.932867	260.717
239.2000	-0.995787	260.974
239.0000	-1.04824	261.232
238.8000	-1.09131	261.496
238.6000	-1.13916	261.763
238.4000	-1.17715	262.036
238.2000	-1.21391	262.309
238.0000	-1.27542	262.585
237.8000	-1.33413	262.865
237.6000	-1.39583	263.152
237.4000	-1.45771	263.441
237.2000	-1.52754	263.734
237.0000	-1.57834	264.031
236.8000	-1.62969	264.331
236.6000	-1.70864	264.634
236.4000	-1.78306	264.938
236.2000	-1.86307	265.247
236.0000	-1.95214	265.561
235.8000	-2.02518	265.88
235.6000	-2.11165	266.202
235.4000	-2.19896	266.528
235.2000	-2.26399	266.857
235.0000	-2.34572	267.188
234.8000	-2.42894	267.523
234.6000	-2.51943	267.861
234.4000	-2.59385	268.202
234.2000	-2.69765	268.547
234.0000	-2.78503	268.894
233.8000	-2.88127	269.246
233.6000	-2.97141	269.603
233.4000	-3.05162	269.961
233.2000	-3.12907	270.32
233.0000	-3.21591	270.681
232.8000	-3.29053	271.043
232.6000	-3.37451	271.407
232.4000	-3.45744	271.773
232.2000	-3.53431	272.136
232.0000	-3.61427	272.5
231.8000	-3.69864	272.864
231.6000	-3.77014	273.226
231.4000	-3.86377	273.586
231.2000	-3.94013	273.949
231.0000	-4.00722	274.312
230.8000	-4.09242	274.675
230.6000	-4.18802	275.038
230.4000	-4.25324	275.401
230.2000	-4.32799	275.765
230.0000	-4.41963	276.13
229.8000	-4.50613	276.496
229.6000	-4.59493	276.864
229.4000	-4.66802	277.234
229.2000	-4.74681	277.603
229.0000	-4.83165	277.972
228.8000	-4.90587	278.341
228.6000	-4.94892	278.706
228.4000	-5.01872	279.073
228.2000	-5.08675	279.438
228.0000	-5.14138	279.802
227.8000	-5.19417	280.165
227.6000	-5.2592	280.526
227.4000	-5.33443	280.887
227.2000	-5.38099	281.248
227.0000	-5.44545	281.606
226.8000	-5.51542	281.965
226.6000	-5.57296	282.326
226.4000	-5.6269	282.685
226.2000	-5.66825	283.045
226.0000	-5.71483	283.407
225.8000	-5.77669	283.772
225.6000	-5.80571	284.135
225.4000	-5.86427	284.497
225.2000	-5.90506	284.86
225.0000	-5.95433	285.226
224.8000	-6.00865	285.593
224.6000	-6.03354	285.961
224.4000	-6.08375	286.331
224.2000	-6.10042	286.702
224.0000	-6.13582	287.074
223.8000	-6.18276	287.446
223.6000	-6.20367	287.822
223.4000	-6.23552	288.198
223.2000	-6.28583	288.577
223.0000	-6.31764	288.957
222.8000	-6.33803	289.339
222.6000	-6.34981	289.722
222.4000	-6.35336	290.109
222.2000	-6.39217	290.498
222.0000	-6.41188	290.889
221.8000	-6.41343	291.282
221.6000	-6.42445	291.677
221.4000	-6.43	292.076
221.2000	-6.45319	292.474
221.0000	-6.46388	292.875
220.8000	-6.49087	293.278
220.6000	-6.48549	293.684
220.4000	-6.49102	294.093
220.2000	-6.49994	294.506
220.0000	-6.5377	294.923
219.8000	-6.55699	295.344
219.6000	-6.56228	295.77
219.4000	-6.58042	296.2
219.2000	-6.60894	296.637
219.0000	-6.6139	297.08
218.8000	-6.65464	297.528
218.6000	-6.65457	297.984
218.4000	-6.65274	298.447
218.2000	-6.64431	298.915
218.0000	-6.64509	299.39
217.8000	-6.66078	299.872
217.6000	-6.65269	300.36
217.4000	-6.62841	300.855
217.2000	-6.6096	301.358
217.0000	-6.63076	301.866
216.8000	-6.62949	302.379
216.6000	-6.61938	302.901
216.4000	-6.63044	303.428
216.2000	-6.63599	303.962
216.0000	-6.6245	304.504
215.8000	-6.61554	305.057
215.6000	-6.62122	305.619
215.4000	-6.6233	306.194
215.2000	-6.62137	306.781
215.0000	-6.66434	307.38
214.8000	-6.69361	307.992
214.6000	-6.72201	308.622
214.4000	-6.73755	309.268
214.2000	-6.74272	309.934
214.0000	-6.77332	310.614
213.8000	-6.79975	311.313
213.6000	-6.81482	312.034
213.4000	-6.85094	312.774
213.2000	-6.90498	313.531
213.0000	-6.96896	314.306
212.8000	-7.04683	315.1
212.6000	-7.09475	315.913
212.4000	-7.12292	316.745
212.2000	-7.16402	317.599
212.0000	-7.21278	318.471
211.8000	-7.2619	319.362
211.6000	-7.30863	320.271
211.4000	-7.3883	321.201
211.2000	-7.4449	322.156
211.0000	-7.50038	323.134
210.8000	-7.55385	324.133
210.6000	-7.57845	325.159
210.4000	-7.59422	326.216
210.2000	-7.63108	327.302
210.0000	-7.63596	328.415
209.8000	-7.68889	329.557
209.6000	-7.74668	330.728
209.4000	-7.7717	331.927
209.2000	-7.77152	333.157
209.0000	-7.7911	334.416
208.8000	-7.78981	335.709
208.6000	-7.76812	337.034
208.4000	-7.71987	338.388
208.2000	-7.71276	339.775
208.0000	-7.68805	341.194
207.8000	-7.6929	342.644
207.6000	-7.64229	344.124
207.4000	-7.61002	345.639
207.2000	-7.56602	347.189
207.0000	-7.46142	348.78
206.8000	-7.34349	350.409
206.6000	-7.26839	352.078
206.4000	-7.19157	353.789
206.2000	-7.07631	355.538
206.0000	-6.95353	357.324
205.8000	-6.8375	359.151
205.6000	-6.73601	361.018
205.4000	-6.59477	362.929
205.2000	-6.44163	364.884
205.0000	-6.30669	366.882
204.8000	-6.14105	368.923
204.6000	-5.99486	371.009
204.4000	-5.83778	373.14
204.2000	-5.73318	375.316
204.0000	-5.55006	377.54
203.8000	-5.33625	379.813
203.6000	-5.15451	382.14
203.4000	-4.98532	384.523
203.2000	-4.81317	386.961
203.0000	-4.61272	389.459
202.8000	-4.39544	392.015
202.6000	-4.13284	394.626
202.4000	-3.86923	397.293
202.2000	-3.57764	400.017
202.0000	-3.38417	402.797
201.8000	-3.02517	405.637
201.6000	-2.71182	408.539
201.4000	-2.33269	411.502
201.2000	-2.08844	414.528
201.0000	-1.77998	417.614
200.8000	-1.41362	420.765
200.6000	-1.06346	423.98
200.4000	-0.746727	427.262
200.2000	-0.360759	430.611
200.0000	0.0906353	434.042
199.8000	0.482371	437.552
199.6000	0.952127	441.138
199.4000	1.39944	444.809
199.2000	1.8657	448.565
199.0000	2.24118	452.402
198.8000	2.66285	456.322
198.6000	3.0536	460.328
198.4000	3.48433	464.429
198.2000	3.92418	468.627
198.0000	4.29076	472.922
197.8000	4.76109	477.327
197.6000	5.12373	481.841
197.4000	5.44286	486.456
197.2000	5.68775	491.177
197.0000	5.89323	496.025
196.8000	5.98733	501.014
196.6000	6.26844	506.135
196.4000	6.37098	511.404
196.2000	6.63413	516.842
196.0000	6.60129	522.467
195.8000	6.82142	528.288
195.6000	7.01201	534.309
195.4000	7.31102	540.543
195.2000	7.78472	547.004
195.0000	8.03945	553.71
