TITLE	PE1_GEF_Assay_Scan
DATA TYPE	
ORIGIN	JASCO
OWNER	
DATE	18/09/06
TIME	11:16:50
SPECTROMETER/DATA SYSTEM	JASCO Corp., J-715, Rev. 1.00
RESOLUTION	
DELTAX	-0.2
XUNITS	NANOMETERS
YUNITS	CD[mdeg]
Y2UNITS	HT[V]
FIRSTX	280.0000
LASTX	195.0000
NPOINTS	426
FIRSTY	-0.25040
MAXY	8.35408
MINY	-8.54985
XYDATA
280.0000	-0.250403	236.809
279.8000	-0.237704	236.82
279.6000	-0.233266	236.837
279.4000	-0.225282	236.864
279.2000	-0.227613	236.899
279.0000	-0.230825	236.938
278.8000	-0.236975	236.983
278.6000	-0.244341	237.034
278.4000	-0.240259	237.091
278.2000	-0.242794	237.156
278.0000	-0.236316	237.231
277.8000	-0.245468	237.313
277.6000	-0.244488	237.403
277.4000	-0.245122	237.501
277.2000	-0.25819	237.601
277.0000	-0.263006	237.702
276.8000	-0.261341	237.804
276.6000	-0.263513	237.906
276.4000	-0.25787	238.009
276.2000	-0.251819	238.11
276.0000	-0.249664	238.212
275.8000	-0.242956	238.314
275.6000	-0.244223	238.419
275.4000	-0.235947	238.523
275.2000	-0.242392	238.628
275.0000	-0.245272	238.731
274.8000	-0.250421	238.834
274.6000	-0.236554	238.934
274.4000	-0.224776	239.033
274.2000	-0.223206	239.132
274.0000	-0.229601	239.234
273.8000	-0.231115	239.333
273.6000	-0.23611	239.434
273.4000	-0.249444	239.538
273.2000	-0.257417	239.641
273.0000	-0.255841	239.745
272.8000	-0.260187	239.851
272.6000	-0.257491	239.959
272.4000	-0.251405	240.068
272.2000	-0.246512	240.179
272.0000	-0.241911	240.29
271.8000	-0.255847	240.404
271.6000	-0.263739	240.52
271.4000	-0.270271	240.639
271.2000	-0.265911	240.758
271.0000	-0.255977	240.878
270.8000	-0.25247	240.999
270.6000	-0.246785	241.119
270.4000	-0.245866	241.238
270.2000	-0.244199	241.355
270.0000	-0.244664	241.467
269.8000	-0.257994	241.577
269.6000	-0.254686	241.687
269.4000	-0.257707	241.794
269.2000	-0.252342	241.902
269.0000	-0.253754	242.007
268.8000	-0.245682	242.109
268.6000	-0.240562	242.211
268.4000	-0.244186	242.31
268.2000	-0.258488	242.408
268.0000	-0.256817	242.508
267.8000	-0.257088	242.605
267.6000	-0.263694	242.704
267.4000	-0.271912	242.803
267.2000	-0.267889	242.903
267.0000	-0.2675	243.005
266.8000	-0.265174	243.104
266.6000	-0.274859	243.204
266.4000	-0.267446	243.304
266.2000	-0.265219	243.403
266.0000	-0.264623	243.502
265.8000	-0.26362	243.6
265.6000	-0.258325	243.696
265.4000	-0.259771	243.792
265.2000	-0.259212	243.882
265.0000	-0.249599	243.975
264.8000	-0.243814	244.068
264.6000	-0.24241	244.159
264.4000	-0.234806	244.25
264.2000	-0.237891	244.34
264.0000	-0.233677	244.43
263.8000	-0.234079	244.52
263.6000	-0.239214	244.606
263.4000	-0.250119	244.696
263.2000	-0.263249	244.784
263.0000	-0.268348	244.872
262.8000	-0.265718	244.96
262.6000	-0.26014	245.047
262.4000	-0.26567	245.136
262.2000	-0.262105	245.225
262.0000	-0.270834	245.316
261.8000	-0.275442	245.409
261.6000	-0.270593	245.504
261.4000	-0.263034	245.598
261.2000	-0.275979	245.691
261.0000	-0.271129	245.787
260.8000	-0.278594	245.887
260.6000	-0.268369	245.986
260.4000	-0.268469	246.088
260.2000	-0.269609	246.192
260.0000	-0.273031	246.298
259.8000	-0.276202	246.405
259.6000	-0.27294	246.515
259.4000	-0.272833	246.621
259.2000	-0.272772	246.728
259.0000	-0.266081	246.834
258.8000	-0.272762	246.94
258.6000	-0.275203	247.048
258.4000	-0.283815	247.157
258.2000	-0.294902	247.262
258.0000	-0.289889	247.368
257.8000	-0.308721	247.473
257.6000	-0.29932	247.578
257.4000	-0.310825	247.681
257.2000	-0.311301	247.788
257.0000	-0.315761	247.894
256.8000	-0.333055	247.999
256.6000	-0.346196	248.108
256.4000	-0.34536	248.217
256.2000	-0.364451	248.329
256.0000	-0.371709	248.442
255.8000	-0.377075	248.554
255.6000	-0.37487	248.667
255.4000	-0.376004	248.782
255.2000	-0.37544	248.899
255.0000	-0.360248	249.018
254.8000	-0.356528	249.136
254.6000	-0.348892	249.255
254.4000	-0.348997	249.374
254.2000	-0.344475	249.493
254.0000	-0.338619	249.613
253.8000	-0.339283	249.732
253.6000	-0.33713	249.849
253.4000	-0.329413	249.965
253.2000	-0.324273	250.082
253.0000	-0.320817	250.2
252.8000	-0.321483	250.318
252.6000	-0.313488	250.435
252.4000	-0.307725	250.548
252.2000	-0.322362	250.663
252.0000	-0.328469	250.777
251.8000	-0.339371	250.892
251.6000	-0.34568	251.007
251.4000	-0.34535	251.12
251.2000	-0.331091	251.234
251.0000	-0.327463	251.347
250.8000	-0.328589	251.462
250.6000	-0.331878	251.575
250.4000	-0.329941	251.688
250.2000	-0.331858	251.799
250.0000	-0.33175	251.911
249.8000	-0.339961	252.022
249.6000	-0.357768	252.135
249.4000	-0.361522	252.249
249.2000	-0.354178	252.363
249.0000	-0.349227	252.477
248.8000	-0.353203	252.594
248.6000	-0.368511	252.713
248.4000	-0.380932	252.834
248.2000	-0.393612	252.958
248.0000	-0.404322	253.084
247.8000	-0.402801	253.214
247.6000	-0.426625	253.345
247.4000	-0.426978	253.478
247.2000	-0.440617	253.613
247.0000	-0.437519	253.75
246.8000	-0.442278	253.888
246.6000	-0.45169	254.026
246.4000	-0.472515	254.168
246.2000	-0.486939	254.31
246.0000	-0.50878	254.455
245.8000	-0.518273	254.603
245.6000	-0.531008	254.748
245.4000	-0.535522	254.898
245.2000	-0.54883	255.048
245.0000	-0.569276	255.202
244.8000	-0.575077	255.356
244.6000	-0.608411	255.515
244.4000	-0.637429	255.677
244.2000	-0.663618	255.838
244.0000	-0.683805	256.003
243.8000	-0.69843	256.172
243.6000	-0.72391	256.345
243.4000	-0.7407	256.522
243.2000	-0.761403	256.701
243.0000	-0.793177	256.886
242.8000	-0.826525	257.074
242.6000	-0.854239	257.263
242.4000	-0.871181	257.456
242.2000	-0.90257	257.653
242.0000	-0.944089	257.852
241.8000	-0.96535	258.055
241.6000	-0.990409	258.264
241.4000	-1.02101	258.478
241.2000	-1.04991	258.696
241.0000	-1.08806	258.918
240.8000	-1.13313	259.144
240.6000	-1.17465	259.372
240.4000	-1.20812	259.602
240.2000	-1.24743	259.836
240.0000	-1.30086	260.074
239.8000	-1.34487	260.317
239.6000	-1.39065	260.565
239.4000	-1.44156	260.817
239.2000	-1.48485	261.074
239.0000	-1.5349	261.334
238.8000	-1.58826	261.599
238.6000	-1.63869	261.865
238.4000	-1.6983	262.137
238.2000	-1.73867	262.412
238.0000	-1.79468	262.691
237.8000	-1.8606	262.973
237.6000	-1.9274	263.261
237.4000	-1.97665	263.551
237.2000	-2.0303	263.847
237.0000	-2.09298	264.146
236.8000	-2.16032	264.449
236.6000	-2.245	264.756
236.4000	-2.32093	265.064
236.2000	-2.40809	265.378
236.0000	-2.4936	265.699
235.8000	-2.57445	266.024
235.6000	-2.64824	266.352
235.4000	-2.7306	266.682
235.2000	-2.80268	267.017
235.0000	-2.87661	267.356
234.8000	-2.9671	267.698
234.6000	-3.06309	268.044
234.4000	-3.14625	268.392
234.2000	-3.22504	268.744
234.0000	-3.30553	269.099
233.8000	-3.38788	269.458
233.6000	-3.45793	269.822
233.4000	-3.533	270.185
233.2000	-3.61096	270.55
233.0000	-3.70838	270.918
232.8000	-3.7898	271.285
232.6000	-3.86857	271.655
232.4000	-3.95396	272.024
232.2000	-4.04921	272.39
232.0000	-4.11553	272.756
231.8000	-4.20055	273.122
231.6000	-4.28565	273.489
231.4000	-4.36285	273.855
231.2000	-4.45216	274.224
231.0000	-4.54531	274.592
230.8000	-4.64724	274.961
230.6000	-4.72923	275.33
230.4000	-4.80478	275.7
230.2000	-4.87634	276.07
230.0000	-4.96515	276.442
229.8000	-5.02269	276.814
229.6000	-5.10195	277.19
229.4000	-5.17018	277.569
229.2000	-5.26078	277.947
229.0000	-5.34383	278.323
228.8000	-5.42947	278.702
228.6000	-5.51584	279.079
228.4000	-5.57113	279.457
228.2000	-5.63086	279.832
228.0000	-5.6995	280.205
227.8000	-5.77792	280.579
227.6000	-5.84115	280.95
227.4000	-5.89477	281.319
227.2000	-5.96249	281.691
227.0000	-6.04242	282.062
226.8000	-6.10241	282.433
226.6000	-6.1477	282.805
226.4000	-6.19718	283.178
226.2000	-6.25335	283.554
226.0000	-6.30443	283.928
225.8000	-6.33399	284.303
225.6000	-6.38048	284.679
225.4000	-6.41447	285.056
225.2000	-6.45965	285.433
225.0000	-6.48516	285.813
224.8000	-6.54166	286.195
224.6000	-6.58555	286.578
224.4000	-6.63811	286.96
224.2000	-6.6507	287.345
224.0000	-6.69559	287.732
223.8000	-6.74386	288.121
223.6000	-6.79244	288.508
223.4000	-6.80866	288.899
223.2000	-6.85649	289.293
223.0000	-6.87977	289.691
222.8000	-6.90751	290.089
222.6000	-6.9328	290.49
222.4000	-6.96745	290.894
222.2000	-6.98037	291.301
222.0000	-6.99894	291.71
221.8000	-7.01169	292.121
221.6000	-7.03249	292.536
221.4000	-7.07847	292.954
221.2000	-7.11535	293.374
221.0000	-7.12263	293.796
220.8000	-7.13249	294.223
220.6000	-7.13993	294.653
220.4000	-7.13503	295.085
220.2000	-7.16416	295.52
220.0000	-7.17926	295.959
219.8000	-7.17905	296.405
219.6000	-7.17808	296.857
219.4000	-7.19456	297.312
219.2000	-7.23028	297.778
219.0000	-7.24686	298.248
218.8000	-7.26307	298.724
218.6000	-7.26577	299.208
218.4000	-7.25737	299.701
218.2000	-7.24635	300.202
218.0000	-7.25439	300.708
217.8000	-7.26394	301.224
217.6000	-7.26113	301.749
217.4000	-7.26994	302.285
217.2000	-7.28487	302.828
217.0000	-7.33612	303.378
216.8000	-7.34891	303.935
216.6000	-7.35057	304.499
216.4000	-7.34355	305.071
216.2000	-7.33444	305.65
216.0000	-7.32152	306.241
215.8000	-7.34071	306.842
215.6000	-7.36095	307.453
215.4000	-7.36862	308.078
215.2000	-7.40849	308.718
215.0000	-7.42684	309.371
214.8000	-7.44705	310.039
214.6000	-7.47218	310.723
214.4000	-7.47602	311.423
214.2000	-7.48732	312.143
214.0000	-7.50526	312.885
213.8000	-7.53866	313.648
213.6000	-7.57912	314.432
213.4000	-7.63457	315.239
213.2000	-7.65055	316.068
213.0000	-7.68359	316.918
212.8000	-7.72574	317.786
212.6000	-7.78383	318.674
212.4000	-7.8037	319.58
212.2000	-7.86661	320.51
212.0000	-7.91136	321.461
211.8000	-7.94231	322.435
211.6000	-8.01897	323.432
211.4000	-8.06462	324.452
211.2000	-8.13352	325.499
211.0000	-8.18921	326.569
210.8000	-8.22666	327.665
210.6000	-8.28741	328.787
210.4000	-8.38354	329.939
210.2000	-8.42126	331.121
210.0000	-8.45086	332.34
209.8000	-8.47643	333.59
209.6000	-8.48815	334.875
209.4000	-8.49559	336.196
209.2000	-8.53728	337.551
209.0000	-8.54985	338.941
208.8000	-8.53432	340.364
208.6000	-8.50152	341.82
208.4000	-8.46926	343.309
208.2000	-8.42061	344.833
208.0000	-8.39103	346.396
207.8000	-8.33054	347.999
207.6000	-8.29694	349.641
207.4000	-8.26685	351.321
207.2000	-8.16447	353.042
207.0000	-8.107	354.805
206.8000	-8.059	356.609
206.6000	-7.95095	358.457
206.4000	-7.8024	360.349
206.2000	-7.69167	362.289
206.0000	-7.60715	364.275
205.8000	-7.50625	366.309
205.6000	-7.39016	368.392
205.4000	-7.29329	370.52
205.2000	-7.17762	372.696
205.0000	-7.0141	374.916
204.8000	-6.80342	377.189
204.6000	-6.62487	379.515
204.4000	-6.49047	381.892
204.2000	-6.29025	384.317
204.0000	-6.1293	386.8
203.8000	-6.00068	389.339
203.6000	-5.82149	391.943
203.4000	-5.69046	394.609
203.2000	-5.44708	397.343
203.0000	-5.27729	400.139
202.8000	-4.97289	403
202.6000	-4.69302	405.929
202.4000	-4.44868	408.927
202.2000	-4.20567	411.987
202.0000	-3.9153	415.092
201.8000	-3.60167	418.282
201.6000	-3.32446	421.545
201.4000	-2.89658	424.887
201.2000	-2.51757	428.301
201.0000	-2.13385	431.784
200.8000	-1.74572	435.339
200.6000	-1.32033	438.967
200.4000	-0.842423	442.67
200.2000	-0.435955	446.461
200.0000	-0.0236354	450.338
199.8000	0.57509	454.301
199.6000	1.14609	458.353
199.4000	1.54942	462.505
199.2000	1.98333	466.765
199.0000	2.36739	471.103
198.8000	2.66455	475.539
198.6000	2.97627	480.074
198.4000	3.26305	484.718
198.2000	3.72326	489.479
198.0000	4.26298	494.354
197.8000	4.66662	499.352
197.6000	5.01151	504.466
197.4000	5.32342	509.695
197.2000	5.67197	515.054
197.0000	5.74252	520.558
196.8000	6.10406	526.219
196.6000	6.37994	532.036
196.4000	6.65795	538.015
196.2000	6.90452	544.188
196.0000	7.30752	550.565
195.8000	7.56883	557.15
195.6000	7.84933	563.945
195.4000	8.11537	570.964
195.2000	8.16823	578.219
195.0000	8.35408	585.729
