TITLE	PE14_GEF_Assay_Scan
DATA TYPE	
ORIGIN	JASCO
OWNER	
DATE	18/09/05
TIME	13:29:16
SPECTROMETER/DATA SYSTEM	JASCO Corp., J-715, Rev. 1.00
RESOLUTION	
DELTAX	-0.2
XUNITS	NANOMETERS
YUNITS	CD[mdeg]
Y2UNITS	HT[V]
FIRSTX	280.0000
LASTX	195.0000
NPOINTS	426
FIRSTY	-0.06034
MAXY	7.99180
MINY	-8.13989
XYDATA
280.0000	-0.0603386	236.519
279.8000	-0.0527682	236.534
279.6000	-0.0480422	236.555
279.4000	-0.0479634	236.584
279.2000	-0.0337113	236.62
279.0000	-0.0319934	236.661
278.8000	-0.0315323	236.71
278.6000	-0.0306889	236.768
278.4000	-0.0410956	236.831
278.2000	-0.0366487	236.902
278.0000	-0.0305587	236.982
277.8000	-0.0265314	237.07
277.6000	-0.0301697	237.164
277.4000	-0.0244208	237.266
277.2000	-0.0312617	237.367
277.0000	-0.0400953	237.468
276.8000	-0.0455258	237.572
276.6000	-0.0414634	237.676
276.4000	-0.0502008	237.78
276.2000	-0.0525413	237.883
276.0000	-0.0499355	237.988
275.8000	-0.0547645	238.093
275.6000	-0.0515121	238.199
275.4000	-0.0584725	238.305
275.2000	-0.0494848	238.409
275.0000	-0.048793	238.514
274.8000	-0.0579731	238.619
274.6000	-0.0532236	238.72
274.4000	-0.0478863	238.823
274.2000	-0.0544195	238.926
274.0000	-0.0613041	239.029
273.8000	-0.0638261	239.133
273.6000	-0.0798404	239.238
273.4000	-0.0839716	239.345
273.2000	-0.0859705	239.453
273.0000	-0.0821427	239.559
272.8000	-0.0832652	239.667
272.6000	-0.0904809	239.776
272.4000	-0.101303	239.885
272.2000	-0.101008	239.999
272.0000	-0.102981	240.117
271.8000	-0.0919816	240.236
271.6000	-0.102765	240.355
271.4000	-0.0917582	240.476
271.2000	-0.0900357	240.6
271.0000	-0.0878033	240.724
270.8000	-0.0847761	240.845
270.6000	-0.0909884	240.967
270.4000	-0.0915258	241.089
270.2000	-0.101353	241.209
270.0000	-0.0896681	241.328
269.8000	-0.0839204	241.445
269.6000	-0.0738529	241.558
269.4000	-0.0634254	241.668
269.2000	-0.0688437	241.774
269.0000	-0.0721218	241.881
268.8000	-0.0762794	241.984
268.6000	-0.0787832	242.086
268.4000	-0.0673089	242.185
268.2000	-0.0700133	242.283
268.0000	-0.0571713	242.384
267.8000	-0.048965	242.483
267.6000	-0.0396582	242.581
267.4000	-0.0480735	242.682
267.2000	-0.0550873	242.783
267.0000	-0.0623216	242.887
266.8000	-0.0668464	242.986
266.6000	-0.0637765	243.089
266.4000	-0.065724	243.189
266.2000	-0.0584625	243.29
266.0000	-0.0571112	243.388
265.8000	-0.061934	243.489
265.6000	-0.0671904	243.589
265.4000	-0.0561237	243.686
265.2000	-0.0610453	243.78
265.0000	-0.0717819	243.871
264.8000	-0.0711917	243.964
264.6000	-0.0729127	244.056
264.4000	-0.0746022	244.144
264.2000	-0.0688023	244.236
264.0000	-0.0664475	244.324
263.8000	-0.06334	244.413
263.6000	-0.0675764	244.499
263.4000	-0.0702977	244.59
263.2000	-0.0657928	244.679
263.0000	-0.0649569	244.767
262.8000	-0.0728246	244.853
262.6000	-0.0803965	244.939
262.4000	-0.0746419	245.028
262.2000	-0.0609882	245.12
262.0000	-0.067534	245.213
261.8000	-0.0690006	245.308
261.6000	-0.0740124	245.402
261.4000	-0.0796376	245.5
261.2000	-0.09272	245.597
261.0000	-0.0908118	245.699
260.8000	-0.0937107	245.802
260.6000	-0.0928246	245.903
260.4000	-0.101675	246.007
260.2000	-0.0971106	246.115
260.0000	-0.0965346	246.222
259.8000	-0.105145	246.33
259.6000	-0.121333	246.441
259.4000	-0.119028	246.546
259.2000	-0.110102	246.653
259.0000	-0.10058	246.76
258.8000	-0.0916552	246.865
258.6000	-0.0958966	246.973
258.4000	-0.108813	247.082
258.2000	-0.121575	247.188
258.0000	-0.117903	247.296
257.8000	-0.120812	247.403
257.6000	-0.130963	247.512
257.4000	-0.137653	247.62
257.2000	-0.144606	247.73
257.0000	-0.135951	247.84
256.8000	-0.137243	247.949
256.6000	-0.151766	248.061
256.4000	-0.144935	248.174
256.2000	-0.154846	248.289
256.0000	-0.15173	248.407
255.8000	-0.159962	248.523
255.6000	-0.147868	248.637
255.4000	-0.140145	248.753
255.2000	-0.149504	248.87
255.0000	-0.137539	248.989
254.8000	-0.130517	249.108
254.6000	-0.129576	249.227
254.4000	-0.123055	249.346
254.2000	-0.132154	249.466
254.0000	-0.129543	249.587
253.8000	-0.12694	249.707
253.6000	-0.125578	249.825
253.4000	-0.120626	249.942
253.2000	-0.119517	250.06
253.0000	-0.10913	250.177
252.8000	-0.104559	250.295
252.6000	-0.102263	250.412
252.4000	-0.106621	250.525
252.2000	-0.10706	250.64
252.0000	-0.107996	250.756
251.8000	-0.113454	250.874
251.6000	-0.104592	250.99
251.4000	-0.107796	251.106
251.2000	-0.117005	251.221
251.0000	-0.117737	251.336
250.8000	-0.121872	251.45
250.6000	-0.127055	251.564
250.4000	-0.132923	251.676
250.2000	-0.152049	251.787
250.0000	-0.152068	251.902
249.8000	-0.155432	252.014
249.6000	-0.158992	252.13
249.4000	-0.172723	252.243
249.2000	-0.171678	252.355
249.0000	-0.18395	252.469
248.8000	-0.192279	252.586
248.6000	-0.204831	252.705
248.4000	-0.197381	252.826
248.2000	-0.201252	252.949
248.0000	-0.213084	253.075
247.8000	-0.221931	253.205
247.6000	-0.222221	253.336
247.4000	-0.229993	253.469
247.2000	-0.241066	253.602
247.0000	-0.258589	253.738
246.8000	-0.262901	253.876
246.6000	-0.267463	254.016
246.4000	-0.270281	254.158
246.2000	-0.279242	254.301
246.0000	-0.299047	254.445
245.8000	-0.308416	254.593
245.6000	-0.354329	254.741
245.4000	-0.371824	254.889
245.2000	-0.376727	255.038
245.0000	-0.402807	255.189
244.8000	-0.424754	255.343
244.6000	-0.439855	255.502
244.4000	-0.465218	255.662
244.2000	-0.495756	255.826
244.0000	-0.507424	255.993
243.8000	-0.533487	256.163
243.6000	-0.556242	256.335
243.4000	-0.602104	256.513
243.2000	-0.625106	256.691
243.0000	-0.650984	256.874
242.8000	-0.666846	257.061
242.6000	-0.699808	257.253
242.4000	-0.726274	257.449
242.2000	-0.745061	257.65
242.0000	-0.77062	257.853
241.8000	-0.813105	258.06
241.6000	-0.843085	258.272
241.4000	-0.881452	258.487
241.2000	-0.916502	258.706
241.0000	-0.961512	258.93
240.8000	-0.991609	259.155
240.6000	-1.00817	259.382
240.4000	-1.03813	259.613
240.2000	-1.07989	259.849
240.0000	-1.11143	260.089
239.8000	-1.16119	260.335
239.6000	-1.21564	260.586
239.4000	-1.27881	260.841
239.2000	-1.31818	261.099
239.0000	-1.35796	261.36
238.8000	-1.4	261.625
238.6000	-1.45531	261.891
238.4000	-1.51416	262.163
238.2000	-1.55991	262.439
238.0000	-1.61935	262.722
237.8000	-1.68862	263.008
237.6000	-1.75021	263.298
237.4000	-1.81955	263.591
237.2000	-1.8787	263.889
237.0000	-1.9432	264.19
236.8000	-2.00084	264.494
236.6000	-2.05638	264.801
236.4000	-2.13046	265.111
236.2000	-2.2032	265.428
236.0000	-2.2798	265.75
235.8000	-2.35939	266.077
235.6000	-2.43847	266.407
235.4000	-2.52036	266.738
235.2000	-2.60285	267.074
235.0000	-2.67596	267.415
234.8000	-2.76562	267.761
234.6000	-2.86349	268.11
234.4000	-2.954	268.458
234.2000	-3.03505	268.811
234.0000	-3.10765	269.168
233.8000	-3.19886	269.529
233.6000	-3.26848	269.893
233.4000	-3.33982	270.26
233.2000	-3.40928	270.626
233.0000	-3.49125	270.993
232.8000	-3.58569	271.361
232.6000	-3.6837	271.732
232.4000	-3.75739	272.102
232.2000	-3.8498	272.471
232.0000	-3.92136	272.84
231.8000	-3.99347	273.21
231.6000	-4.08027	273.581
231.4000	-4.18024	273.95
231.2000	-4.27758	274.321
231.0000	-4.35179	274.694
230.8000	-4.45053	275.069
230.6000	-4.5642	275.444
230.4000	-4.63775	275.82
230.2000	-4.71522	276.201
230.0000	-4.78628	276.583
229.8000	-4.85026	276.966
229.6000	-4.92999	277.35
229.4000	-5.00037	277.735
229.2000	-5.08252	278.121
229.0000	-5.17118	278.506
228.8000	-5.21922	278.895
228.6000	-5.28612	279.284
228.4000	-5.37054	279.669
228.2000	-5.42922	280.052
228.0000	-5.50386	280.434
227.8000	-5.57654	280.818
227.6000	-5.65869	281.198
227.4000	-5.72746	281.577
227.2000	-5.79658	281.956
227.0000	-5.8724	282.334
226.8000	-5.93799	282.713
226.6000	-6.00264	283.095
226.4000	-6.04997	283.478
226.2000	-6.11258	283.863
226.0000	-6.17954	284.247
225.8000	-6.21919	284.633
225.6000	-6.25835	285.023
225.4000	-6.306	285.415
225.2000	-6.3083	285.807
225.0000	-6.33766	286.201
224.8000	-6.37843	286.597
224.6000	-6.41542	286.996
224.4000	-6.46147	287.398
224.2000	-6.5075	287.804
224.0000	-6.53836	288.212
223.8000	-6.56473	288.621
223.6000	-6.6007	289.033
223.4000	-6.6113	289.445
223.2000	-6.64222	289.862
223.0000	-6.68029	290.28
222.8000	-6.71705	290.7
222.6000	-6.75569	291.125
222.4000	-6.79195	291.553
222.2000	-6.82566	291.984
222.0000	-6.8508	292.419
221.8000	-6.87045	292.856
221.6000	-6.89562	293.295
221.4000	-6.89233	293.737
221.2000	-6.91413	294.183
221.0000	-6.96345	294.631
220.8000	-6.98096	295.083
220.6000	-7.01841	295.538
220.4000	-7.02672	295.998
220.2000	-7.04293	296.464
220.0000	-7.05669	296.936
219.8000	-7.07167	297.411
219.6000	-7.09591	297.892
219.4000	-7.1253	298.381
219.2000	-7.12584	298.878
219.0000	-7.13354	299.383
218.8000	-7.13076	299.896
218.6000	-7.14689	300.416
218.4000	-7.14465	300.944
218.2000	-7.14745	301.48
218.0000	-7.1528	302.025
217.8000	-7.17062	302.58
217.6000	-7.18223	303.145
217.4000	-7.18598	303.718
217.2000	-7.20147	304.299
217.0000	-7.21977	304.893
216.8000	-7.21608	305.496
216.6000	-7.21024	306.107
216.4000	-7.22237	306.727
216.2000	-7.26997	307.357
216.0000	-7.29025	308.001
215.8000	-7.30414	308.658
215.6000	-7.30698	309.328
215.4000	-7.30615	310.015
215.2000	-7.28588	310.718
215.0000	-7.32505	311.437
214.8000	-7.36495	312.169
214.6000	-7.38934	312.919
214.4000	-7.38794	313.693
214.2000	-7.42301	314.488
214.0000	-7.43755	315.305
213.8000	-7.48625	316.144
213.6000	-7.49431	317.008
213.4000	-7.50039	317.896
213.2000	-7.51577	318.806
213.0000	-7.56726	319.739
212.8000	-7.61506	320.696
212.6000	-7.63251	321.679
212.4000	-7.66487	322.685
212.2000	-7.68254	323.714
212.0000	-7.72894	324.778
211.8000	-7.76322	325.865
211.6000	-7.77395	326.975
211.4000	-7.79423	328.114
211.2000	-7.84872	329.283
211.0000	-7.86395	330.479
210.8000	-7.91489	331.706
210.6000	-7.92415	332.965
210.4000	-7.93593	334.259
210.2000	-7.98919	335.595
210.0000	-8.02425	336.968
209.8000	-8.03091	338.377
209.6000	-8.09166	339.826
209.4000	-8.11234	341.313
209.2000	-8.11461	342.839
209.0000	-8.13989	344.403
208.8000	-8.11851	346.009
208.6000	-8.10064	347.655
208.4000	-8.07849	349.343
208.2000	-8.10067	351.072
208.0000	-8.08124	352.843
207.8000	-8.04825	354.657
207.6000	-7.97055	356.51
207.4000	-7.90035	358.409
207.2000	-7.79774	360.356
207.0000	-7.7126	362.351
206.8000	-7.61312	364.395
206.6000	-7.53039	366.494
206.4000	-7.4156	368.645
206.2000	-7.33053	370.846
206.0000	-7.27992	373.099
205.8000	-7.13234	375.406
205.6000	-6.99584	377.77
205.4000	-6.82881	380.19
205.2000	-6.69693	382.664
205.0000	-6.47781	385.194
204.8000	-6.32028	387.786
204.6000	-6.13101	390.438
204.4000	-5.99061	393.153
204.2000	-5.76592	395.926
204.0000	-5.44981	398.764
203.8000	-5.2429	401.666
203.6000	-5.01612	404.64
203.4000	-4.78657	407.685
203.2000	-4.52352	410.804
203.0000	-4.25332	413.998
202.8000	-3.95266	417.27
202.6000	-3.63736	420.623
202.4000	-3.29845	424.054
202.2000	-3.07487	427.56
202.0000	-2.73087	431.141
201.8000	-2.35256	434.8
201.6000	-2.00738	438.539
201.4000	-1.68163	442.366
201.2000	-1.2774	446.279
201.0000	-0.92696	450.278
200.8000	-0.415846	454.367
200.6000	0.0664431	458.551
200.4000	0.476043	462.831
200.2000	0.879947	467.21
200.0000	1.32618	471.695
199.8000	1.61883	476.29
199.6000	2.12525	481.002
199.4000	2.61699	485.834
199.2000	2.93354	490.781
199.0000	3.30734	495.854
198.8000	3.63925	501.06
198.6000	4.00469	506.389
198.4000	4.34713	511.858
198.2000	4.73672	517.473
198.0000	5.04266	523.243
197.8000	5.14278	529.167
197.6000	5.57132	535.245
197.4000	5.92181	541.472
197.2000	6.25083	547.86
197.0000	6.49602	554.433
196.8000	6.78904	561.196
196.6000	6.94857	568.16
196.4000	6.95492	575.329
196.2000	6.82848	582.724
196.0000	7.1025	590.366
195.8000	7.40316	598.271
195.6000	7.65916	606.442
195.4000	7.74187	614.883
195.2000	7.77803	623.605
195.0000	7.9918	632.643
